 h2so4 RRTMG LUT interpolated from GADS (DAR 09/2013)
 V0.1 - contains Fast-J wavelengths but is the same as the original jv_spec.dat values
  w(nm)   RH       N         iK  RgDry  RgWet      Sg       Q  Alpha  r-eff ss-alb  g-sym  pi(0)  pi(1)  pi(2)  pi(3)  pi(4)  pi(5)  pi(6)  pi(7)
  300.0    0  1.3326  0.000E+00  0.508  0.508    0.60  1.9653  0.990  0.508  1.000  0.643  1.000  1.928  2.625  2.292  2.133  1.813  1.804  1.744
  400.0    0  1.3326  0.000E+00  0.508  0.508    0.60  3.2897  0.990  0.508  1.000  0.800  1.000  2.400  3.437  3.880  4.140  4.274  4.345  4.392
  440.0    0  1.3326  0.000E+00  0.508  0.508    0.60  3.7374  0.990  0.508  1.000  0.826  1.000  2.478  3.601  4.125  4.460  4.603  4.609  4.602
  500.0    0  1.3326  0.000E+00  0.508  0.508    0.60  3.9632  0.990  0.508  1.000  0.845  1.000  2.534  3.672  4.247  4.537  4.621  4.431  4.199
  550.0    0  1.3326  0.000E+00  0.508  0.508    0.60  3.9401  0.990  0.508  1.000  0.852  1.000  2.556  3.657  4.207  4.446  4.349  4.043  3.530
  600.0    0  1.3326  0.000E+00  0.508  0.508    0.60  3.7260  0.990  0.508  1.000  0.849  1.000  2.547  3.612  4.105  4.178  3.982  3.434  2.747
  675.0    0  1.3326  0.000E+00  0.508  0.508    0.60  3.4608  0.990  0.508  1.000  0.845  1.000  2.535  3.540  3.872  3.825  3.346  2.640  1.782
  800.0    0  1.3326  0.000E+00  0.508  0.508    0.60  2.8427  0.990  0.508  1.000  0.826  1.000  2.478  3.299  3.405  2.991  2.249  1.300  0.515
  870.0    0  1.3326  0.000E+00  0.508  0.508    0.60  2.4768  0.990  0.508  1.000  0.811  1.000  2.433  3.184  3.068  2.522  1.625  0.809  0.270
 1000.0    0  1.3326  0.000E+00  0.508  0.508    0.60  2.0094  0.990  0.508  1.000  0.795  1.000  2.384  2.863  2.546  1.692  0.764  0.278  0.073
 1020.0    0  1.3326  0.000E+00  0.508  0.508    0.60  1.9393  0.990  0.508  1.000  0.792  1.000  2.376  2.823  2.478  1.595  0.689  0.239  0.060
55555.6    0  1.1684  0.258E+00  0.508  0.508    0.60  0.0370  0.990  0.508  0.000  0.001  1.000  0.002  0.500  0.000  0.000  0.000  0.000  0.000
23529.4    0  1.1684  0.258E+00  0.508  0.508    0.60  0.0877  0.990  0.508  0.000  0.003  1.000  0.009  0.500  0.002  0.000  0.000  0.000  0.000
17699.1    0  1.1684  0.258E+00  0.508  0.508    0.60  0.1169  0.990  0.508  0.001  0.005  1.000  0.016  0.500  0.004  0.000  0.000  0.000  0.000
15037.6    0  1.1684  0.258E+00  0.508  0.508    0.60  0.1380  0.990  0.508  0.002  0.008  1.000  0.023  0.500  0.005  0.000  0.000  0.000  0.000
13157.9    0  1.1684  0.258E+00  0.508  0.508    0.60  0.1581  0.990  0.508  0.002  0.010  1.000  0.030  0.500  0.007  0.000  0.000  0.000  0.000
11111.1    0  1.1796  0.164E+00  0.508  0.508    0.60  0.1181  0.990  0.508  0.004  0.014  1.000  0.042  0.500  0.010  0.000  0.000  0.000  0.000
 9708.7    0  1.3159  0.103E+00  0.508  0.508    0.60  0.0807  0.990  0.508  0.016  0.020  1.000  0.059  0.501  0.012  0.000  0.000  0.000  0.000
 8849.6    0  1.2787  0.149E+00  0.508  0.508    0.60  0.1309  0.990  0.508  0.013  0.023  1.000  0.070  0.501  0.015  0.000  0.000  0.000  0.000
 7782.1    0  1.2991  0.655E-01  0.508  0.508    0.60  0.0675  0.990  0.508  0.040  0.030  1.000  0.091  0.502  0.019  0.000  0.000  0.000  0.000
 6968.6    0  1.3311  0.555E-01  0.508  0.508    0.60  0.0660  0.990  0.508  0.075  0.038  1.000  0.115  0.503  0.024  0.000  0.000  0.000  0.000
 6097.6    0  1.3533  0.119E+00  0.508  0.508    0.60  0.1610  0.990  0.508  0.063  0.050  1.000  0.151  0.504  0.031  0.001  0.000  0.000  0.000
 5154.6    0  1.3366  0.293E-01  0.508  0.508    0.60  0.0620  0.990  0.508  0.263  0.070  1.000  0.210  0.509  0.044  0.002  0.000  0.000  0.000
 4618.9    0  1.3577  0.343E-01  0.508  0.508    0.60  0.0889  0.990  0.508  0.315  0.088  1.000  0.264  0.514  0.054  0.002  0.000  0.000  0.000
 4319.7    0  1.3621  0.267E-01  0.508  0.508    0.60  0.0884  0.990  0.508  0.418  0.101  1.000  0.303  0.518  0.062  0.003  0.000  0.000  0.000
 4016.1    0  1.3799  0.213E-01  0.508  0.508    0.60  0.0984  0.990  0.508  0.543  0.118  1.000  0.353  0.524  0.071  0.004  0.000  0.000  0.000
 3418.8    0  1.4670  0.487E-01  0.508  0.508    0.60  0.2691  0.990  0.508  0.536  0.172  1.000  0.515  0.549  0.097  0.008  0.000  0.000  0.000
 3444.7    0  1.4602  0.438E-01  0.508  0.508    0.60  0.2481  0.990  0.508  0.550  0.168  1.000  0.505  0.547  0.096  0.008  0.000  0.000  0.000
 2777.0    0  1.1248  0.530E-01  0.508  0.508    0.60  0.1869  0.990  0.508  0.123  0.235  1.000  0.705  0.604  0.172  0.022  0.002  0.000  0.000
 2320.2    0  1.2971  0.000E+00  0.508  0.508    0.60  0.2064  0.990  0.508  1.000  0.362  1.000  1.087  0.736  0.246  0.043  0.004  0.000  0.000
 2044.2    0  1.3176  0.000E+00  0.508  0.508    0.60  0.3303  0.990  0.508  1.000  0.481  1.000  1.442  0.923  0.343  0.077  0.010  0.001  0.000
 1778.4    0  1.3291  0.000E+00  0.508  0.508    0.60  0.5158  0.990  0.508  1.000  0.612  1.000  1.837  1.257  0.503  0.142  0.025  0.003  0.000
 1455.2    0  1.3326  0.000E+00  0.508  0.508    0.60  0.9380  0.990  0.508  1.000  0.682  1.000  2.045  1.816  0.872  0.326  0.081  0.014  0.002
 1270.3    0  1.3326  0.000E+00  0.508  0.508    0.60  1.2429  0.990  0.508  1.000  0.703  1.000  2.110  2.219  1.368  0.625  0.193  0.043  0.007
  944.3    0  1.3326  0.000E+00  0.508  0.508    0.60  2.1932  0.990  0.508  1.000  0.800  1.000  2.400  2.992  2.737  1.998  1.039  0.435  0.127
  693.5    0  1.3326  0.000E+00  0.508  0.508    0.60  3.3413  0.990  0.508  1.000  0.845  1.000  2.534  3.514  3.816  3.699  3.158  2.400  1.513
  527.1    0  1.3326  0.000E+00  0.508  0.508    0.60  3.8849  0.990  0.508  1.000  0.844  1.000  2.533  3.643  4.198  4.459  4.425  4.170  3.780
  399.8    0  1.3326  0.000E+00  0.508  0.508    0.60  3.2898  0.990  0.508  1.000  0.800  1.000  2.400  3.436  3.878  4.138  4.272  4.343  4.390
  329.1    0  1.3326  0.000E+00  0.508  0.508    0.60  2.2667  0.990  0.508  1.000  0.691  1.000  2.074  2.858  2.768  2.760  2.580  2.603  2.674
  229.8    0  1.3326  0.000E+00  0.508  0.508    0.60  2.3824  0.990  0.508  1.000  0.726  1.000  2.179  3.348  3.692  4.451  4.948  5.537  6.102
 7082.2    0  1.3270  0.562E-01  0.508  0.508    0.60  0.0654  0.990  0.508  0.069  0.037  1.000  0.111  0.502  0.023  0.000  0.000  0.000  0.000
  300.0   50  1.3797  0.114E-01  0.508  0.761    0.60  2.4690  0.990  0.761  0.757  0.868  1.000  2.603  3.969  4.877  5.896  6.602  7.265  7.726
  400.0   50  1.3797  0.114E-01  0.508  0.761    0.60  2.3395  0.990  0.761  0.778  0.767  1.000  2.300  3.443  3.980  4.839  5.407  6.090  6.665
  440.0   50  1.3797  0.114E-01  0.508  0.761    0.60  1.9070  0.990  0.761  0.763  0.703  1.000  2.108  2.904  2.939  3.419  3.663  3.976  4.318
  500.0   50  1.3797  0.114E-01  0.508  0.761    0.60  2.0303  0.990  0.761  0.783  0.661  1.000  1.983  2.660  2.429  2.465  2.414  2.573  2.755
  550.0   50  1.3797  0.114E-01  0.508  0.761    0.60  2.3067  0.990  0.761  0.822  0.698  1.000  2.093  2.826  2.773  2.816  2.835  2.952  3.156
  600.0   50  1.3797  0.114E-01  0.508  0.761    0.60  2.7232  0.990  0.761  0.862  0.751  1.000  2.253  3.130  3.277  3.469  3.558  3.692  3.888
  675.0   50  1.3797  0.114E-01  0.508  0.761    0.60  3.2947  0.990  0.761  0.897  0.791  1.000  2.374  3.376  3.734  4.024  4.176  4.239  4.373
  800.0   50  1.3797  0.114E-01  0.508  0.761    0.60  3.7178  0.990  0.761  0.926  0.819  1.000  2.456  3.492  3.962  4.204  4.233  4.045  3.799
  870.0   50  1.3797  0.114E-01  0.508  0.761    0.60  3.9302  0.990  0.761  0.932  0.836  1.000  2.509  3.542  4.013  4.210  4.117  3.809  3.307
 1000.0   50  1.3797  0.114E-01  0.508  0.761    0.60  3.7912  0.990  0.761  0.941  0.830  1.000  2.490  3.458  3.808  3.819  3.480  2.840  2.058
 1020.0   50  1.3797  0.114E-01  0.508  0.761    0.60  3.7722  0.990  0.761  0.940  0.831  1.000  2.492  3.457  3.779  3.771  3.380  2.720  1.913
55555.6   50  1.7343  0.386E+00  0.508  0.761    0.60  0.0548  0.990  0.761  0.001  0.002  1.000  0.005  0.500  0.001  0.000  0.000  0.000  0.000
23529.4   50  1.7349  0.395E+00  0.508  0.761    0.60  0.1367  0.990  0.761  0.007  0.009  1.000  0.027  0.500  0.005  0.000  0.000  0.000  0.000
17699.1   50  1.7588  0.446E+00  0.508  0.761    0.60  0.2075  0.990  0.761  0.016  0.016  1.000  0.048  0.500  0.008  0.000  0.000  0.000  0.000
15037.6   50  1.5027  0.362E+00  0.508  0.761    0.60  0.2434  0.990  0.761  0.015  0.020  1.000  0.059  0.501  0.011  0.000  0.000  0.000  0.000
13157.9   50  1.5337  0.292E+00  0.508  0.761    0.60  0.2263  0.990  0.761  0.026  0.026  1.000  0.078  0.501  0.015  0.000  0.000  0.000  0.000
11111.1   50  1.5882  0.344E+00  0.508  0.761    0.60  0.3181  0.990  0.761  0.045  0.037  1.000  0.112  0.502  0.020  0.000  0.000  0.000  0.000
 9708.7   50  1.6413  0.508E+00  0.508  0.761    0.60  0.5373  0.990  0.761  0.064  0.049  1.000  0.147  0.504  0.026  0.001  0.000  0.000  0.000
 8849.6   50  1.4307  0.516E+00  0.508  0.761    0.60  0.6707  0.990  0.761  0.055  0.054  1.000  0.161  0.505  0.033  0.001  0.000  0.000  0.000
 7782.1   50  1.2466  0.243E+00  0.508  0.761    0.60  0.3917  0.990  0.761  0.043  0.067  1.000  0.201  0.508  0.044  0.002  0.000  0.000  0.000
 6968.6   50  1.3269  0.172E+00  0.508  0.761    0.60  0.3252  0.990  0.761  0.087  0.087  1.000  0.260  0.513  0.054  0.002  0.000  0.000  0.000
 6097.6   50  1.4180  0.218E+00  0.508  0.761    0.60  0.4970  0.990  0.761  0.147  0.119  1.000  0.358  0.524  0.070  0.004  0.000  0.000  0.000
 5154.6   50  1.3078  0.147E+00  0.508  0.761    0.60  0.4274  0.990  0.761  0.166  0.162  1.000  0.487  0.546  0.103  0.009  0.000  0.000  0.000
 4618.9   50  1.3434  0.122E+00  0.508  0.761    0.60  0.4565  0.990  0.761  0.258  0.208  1.000  0.625  0.574  0.130  0.013  0.001  0.000  0.000
 4319.7   50  1.3490  0.116E+00  0.508  0.761    0.60  0.4972  0.990  0.761  0.299  0.242  1.000  0.726  0.600  0.151  0.018  0.001  0.000  0.000
 4016.1   50  1.3559  0.107E+00  0.508  0.761    0.60  0.5401  0.990  0.761  0.350  0.285  1.000  0.856  0.639  0.179  0.024  0.002  0.000  0.000
 3418.8   50  1.3709  0.124E+00  0.508  0.761    0.60  0.7917  0.990  0.761  0.394  0.417  1.000  1.252  0.796  0.274  0.052  0.006  0.000  0.000
 3444.7   50  1.3700  0.120E+00  0.508  0.761    0.60  0.7685  0.990  0.761  0.397  0.410  1.000  1.229  0.785  0.268  0.050  0.005  0.000  0.000
 2777.0   50  1.1943  0.474E-01  0.508  0.761    0.60  0.3791  0.990  0.761  0.392  0.550  1.000  1.650  1.108  0.480  0.133  0.022  0.002  0.000
 2320.2   50  1.3325  0.980E-03  0.508  0.761    0.60  0.7977  0.990  0.761  0.990  0.676  1.000  2.029  1.649  0.732  0.252  0.057  0.009  0.001
 2044.2   50  1.3546  0.233E-02  0.508  0.761    0.60  1.2431  0.990  0.761  0.983  0.682  1.000  2.045  1.992  1.075  0.446  0.123  0.024  0.003
 1778.4   50  1.3679  0.541E-02  0.508  0.761    0.60  1.7183  0.990  0.761  0.966  0.737  1.000  2.212  2.457  1.801  0.929  0.310  0.079  0.014
 1455.2   50  1.3775  0.919E-02  0.508  0.761    0.60  2.5603  0.990  0.761  0.952  0.788  1.000  2.365  2.916  2.636  1.879  0.955  0.393  0.109
 1270.3   50  1.3797  0.114E-01  0.508  0.761    0.60  3.1141  0.990  0.761  0.942  0.811  1.000  2.433  3.198  3.213  2.758  1.980  1.060  0.368
  944.3   50  1.3797  0.114E-01  0.508  0.761    0.60  3.7885  0.990  0.761  0.938  0.830  1.000  2.491  3.479  3.904  3.941  3.735  3.169  2.477
  693.5   50  1.3797  0.114E-01  0.508  0.761    0.60  3.3097  0.990  0.761  0.902  0.792  1.000  2.376  3.366  3.756  4.040  4.149  4.216  4.243
  527.1   50  1.3797  0.114E-01  0.508  0.761    0.60  2.0384  0.990  0.761  0.807  0.691  1.000  2.074  2.710  2.518  2.608  2.530  2.623  2.805
  399.8   50  1.3797  0.114E-01  0.508  0.761    0.60  2.3422  0.990  0.761  0.778  0.768  1.000  2.303  3.448  3.987  4.844  5.413  6.099  6.673
  329.1   50  1.3797  0.114E-01  0.508  0.761    0.60  2.7307  0.990  0.761  0.793  0.861  1.000  2.583  3.986  4.984  6.108  6.954  7.788  8.460
  229.8   50  1.3797  0.114E-01  0.508  0.761    0.60  2.3044  0.990  0.761  0.719  0.887  1.000  2.660  4.011  4.961  5.885  6.668  7.514  8.336
 7082.2   50  1.3166  0.180E+00  0.508  0.761    0.60  0.3300  0.990  0.761  0.078  0.084  1.000  0.251  0.512  0.053  0.002  0.000  0.000  0.000
  300.0   70  1.4179  0.173E-01  0.508  0.849    0.60  2.1564  0.990  0.849  0.640  0.877  1.000  2.630  3.908  4.787  5.634  6.291  7.029  7.666
  400.0   70  1.4179  0.173E-01  0.508  0.849    0.60  2.6810  0.990  0.849  0.734  0.872  1.000  2.616  4.031  5.092  6.258  7.064  7.864  8.433
  440.0   70  1.4179  0.173E-01  0.508  0.849    0.60  2.6128  0.990  0.849  0.745  0.857  1.000  2.571  3.928  4.867  5.976  6.807  7.623  8.121
  500.0   70  1.4179  0.173E-01  0.508  0.849    0.60  2.2025  0.990  0.849  0.715  0.771  1.000  2.312  3.364  3.893  4.794  5.369  5.933  6.344
  550.0   70  1.4179  0.173E-01  0.508  0.849    0.60  1.9605  0.990  0.849  0.701  0.705  1.000  2.116  2.867  2.912  3.379  3.634  3.924  4.151
  600.0   70  1.4179  0.173E-01  0.508  0.849    0.60  1.9341  0.990  0.849  0.715  0.666  1.000  1.997  2.586  2.361  2.628  2.626  2.831  3.027
  675.0   70  1.4179  0.173E-01  0.508  0.849    0.60  2.3301  0.990  0.849  0.773  0.701  1.000  2.104  2.819  2.729  2.930  2.985  3.149  3.441
  800.0   70  1.4179  0.173E-01  0.508  0.849    0.60  3.0078  0.990  0.849  0.849  0.758  1.000  2.273  3.144  3.414  3.684  3.776  3.912  3.991
  870.0   70  1.4179  0.173E-01  0.508  0.849    0.60  3.5194  0.990  0.849  0.873  0.795  1.000  2.384  3.351  3.730  3.985  4.133  4.061  4.037
 1000.0   70  1.4179  0.173E-01  0.508  0.849    0.60  3.8855  0.990  0.849  0.899  0.817  1.000  2.451  3.428  3.831  4.012  3.937  3.656  3.196
 1020.0   70  1.4179  0.173E-01  0.508  0.849    0.60  3.8801  0.990  0.849  0.900  0.817  1.000  2.450  3.424  3.826  3.955  3.865  3.505  2.992
55555.6   70  1.8355  0.478E+00  0.508  0.849    0.60  0.0693  0.990  0.849  0.001  0.002  1.000  0.006  0.500  0.001  0.000  0.000  0.000 -0.000
23529.4   70  1.8130  0.494E+00  0.508  0.849    0.60  0.1799  0.990  0.849  0.010  0.011  1.000  0.034  0.500  0.006  0.000  0.000  0.000  0.000
17699.1   70  1.9871  0.642E+00  0.508  0.849    0.60  0.2813  0.990  0.849  0.028  0.021  1.000  0.064  0.501  0.010  0.000  0.000  0.000  0.000
15037.6   70  1.5717  0.318E+00  0.508  0.849    0.60  0.2336  0.990  0.849  0.026  0.025  1.000  0.076  0.501  0.014  0.000  0.000  0.000  0.000
13157.9   70  1.6893  0.278E+00  0.508  0.849    0.60  0.2279  0.990  0.849  0.055  0.035  1.000  0.105  0.502  0.018  0.000  0.000  0.000  0.000
11111.1   70  1.7564  0.559E+00  0.508  0.849    0.60  0.5373  0.990  0.849  0.072  0.049  1.000  0.147  0.504  0.024  0.001  0.000  0.000  0.000
 9708.7   70  1.8590  0.755E+00  0.508  0.849    0.60  0.8248  0.990  0.849  0.112  0.065  1.000  0.194  0.506  0.031  0.001  0.000  0.000  0.000
 8849.6   70  1.6034  0.777E+00  0.508  0.849    0.60  1.0711  0.990  0.849  0.104  0.069  1.000  0.206  0.508  0.039  0.001  0.000  0.000  0.000
 7782.1   70  1.1347  0.407E+00  0.508  0.849    0.60  0.7337  0.990  0.849  0.052  0.081  1.000  0.243  0.512  0.058  0.003  0.000  0.000  0.000
 6968.6   70  1.2809  0.172E+00  0.508  0.849    0.60  0.3709  0.990  0.849  0.091  0.107  1.000  0.322  0.520  0.069  0.004  0.000  0.000  0.000
 6097.6   70  1.4549  0.217E+00  0.508  0.849    0.60  0.6006  0.990  0.849  0.204  0.153  1.000  0.460  0.539  0.088  0.006  0.000  0.000  0.000
 5154.6   70  1.3515  0.151E+00  0.508  0.849    0.60  0.5387  0.990  0.849  0.236  0.210  1.000  0.631  0.575  0.130  0.013  0.001  0.000  0.000
 4618.9   70  1.4025  0.150E+00  0.508  0.849    0.60  0.6887  0.990  0.849  0.324  0.276  1.000  0.829  0.626  0.167  0.021  0.002  0.000  0.000
 4319.7   70  1.4035  0.143E+00  0.508  0.849    0.60  0.7477  0.990  0.849  0.358  0.322  1.000  0.967  0.671  0.197  0.029  0.002  0.000  0.000
 4016.1   70  1.4100  0.161E+00  0.508  0.849    0.60  0.9091  0.990  0.849  0.367  0.385  1.000  1.155  0.744  0.240  0.042  0.004  0.000  0.000
 3418.8   70  1.3584  0.195E+00  0.508  0.849    0.60  1.1522  0.990  0.849  0.336  0.525  1.000  1.574  0.997  0.395  0.096  0.013  0.001  0.000
 3444.7   70  1.3646  0.194E+00  0.508  0.849    0.60  1.1520  0.990  0.849  0.340  0.519  1.000  1.557  0.982  0.386  0.093  0.013  0.001  0.000
 2777.0   70  1.2728  0.350E-01  0.508  0.849    0.60  0.6006  0.990  0.849  0.645  0.655  1.000  1.966  1.451  0.643  0.206  0.042  0.006  0.001
 2320.2   70  1.3750  0.847E-02  0.508  0.849    0.60  1.3601  0.990  0.849  0.945  0.676  1.000  2.029  1.942  1.027  0.420  0.113  0.021  0.003
 2044.2   70  1.3969  0.106E-01  0.508  0.849    0.60  1.8690  0.990  0.849  0.940  0.724  1.000  2.172  2.372  1.681  0.841  0.267  0.064  0.011
 1778.4   70  1.4077  0.133E-01  0.508  0.849    0.60  2.5639  0.990  0.849  0.935  0.775  1.000  2.326  2.709  2.337  1.441  0.584  0.196  0.045
 1455.2   70  1.4162  0.160E-01  0.508  0.849    0.60  3.3624  0.990  0.849  0.925  0.799  1.000  2.397  3.129  3.115  2.651  1.883  0.981  0.317
 1270.3   70  1.4179  0.173E-01  0.508  0.849    0.60  3.6529  0.990  0.849  0.918  0.814  1.000  2.442  3.282  3.484  3.240  2.661  1.822  0.989
  944.3   70  1.4179  0.173E-01  0.508  0.849    0.60  3.6465  0.990  0.849  0.894  0.803  1.000  2.409  3.363  3.759  4.002  3.985  3.823  3.540
  693.5   70  1.4179  0.173E-01  0.508  0.849    0.60  2.4645  0.990  0.849  0.781  0.700  1.000  2.099  2.849  2.838  3.008  3.072  3.293  3.503
  527.1   70  1.4179  0.173E-01  0.508  0.849    0.60  2.1419  0.990  0.849  0.699  0.715  1.000  2.144  3.099  3.354  4.035  4.339  4.943  5.216
  399.8   70  1.4179  0.173E-01  0.508  0.849    0.60  2.6803  0.990  0.849  0.734  0.872  1.000  2.616  4.031  5.092  6.256  7.062  7.863  8.432
  329.1   70  1.4179  0.173E-01  0.508  0.849    0.60  2.1180  0.990  0.849  0.644  0.868  1.000  2.605  3.838  4.635  5.384  5.887  6.388  6.750
  229.8   70  1.4179  0.173E-01  0.508  0.849    0.60  2.1781  0.990  0.849  0.611  0.897  1.000  2.691  4.114  5.266  6.453  7.554  8.640  9.601
 7082.2   70  1.2553  0.183E+00  0.508  0.849    0.60  0.3808  0.990  0.849  0.076  0.103  1.000  0.308  0.519  0.067  0.004  0.000  0.000  0.000
  300.0   80  1.4200  0.137E-01  0.508  0.913    0.60  2.3494  0.990  0.913  0.703  0.880  1.000  2.641  3.970  4.929  5.950  6.815  7.765  8.671
  400.0   80  1.4200  0.137E-01  0.508  0.913    0.60  2.5077  0.990  0.913  0.745  0.859  1.000  2.577  3.903  4.797  5.782  6.407  7.088  7.511
  440.0   80  1.4200  0.137E-01  0.508  0.913    0.60  2.6971  0.990  0.913  0.779  0.867  1.000  2.600  3.973  4.940  6.064  6.864  7.629  8.115
  500.0   80  1.4200  0.137E-01  0.508  0.913    0.60  2.4837  0.990  0.913  0.776  0.810  1.000  2.431  3.671  4.408  5.509  6.205  6.916  7.380
  550.0   80  1.4200  0.137E-01  0.508  0.913    0.60  2.1619  0.990  0.913  0.758  0.747  1.000  2.240  3.241  3.543  4.253  4.707  5.186  5.493
  600.0   80  1.4200  0.137E-01  0.508  0.913    0.60  1.9701  0.990  0.913  0.745  0.680  1.000  2.039  2.766  2.660  2.993  3.185  3.411  3.613
  675.0   80  1.4200  0.137E-01  0.508  0.913    0.60  2.0902  0.990  0.913  0.765  0.633  1.000  1.899  2.515  2.247  2.331  2.313  2.522  2.715
  800.0   80  1.4200  0.137E-01  0.508  0.913    0.60  2.7057  0.990  0.913  0.853  0.735  1.000  2.204  2.983  3.096  3.333  3.469  3.568  3.869
  870.0   80  1.4200  0.137E-01  0.508  0.913    0.60  3.0323  0.990  0.913  0.880  0.754  1.000  2.262  3.110  3.363  3.627  3.698  3.825  3.883
 1000.0   80  1.4200  0.137E-01  0.508  0.913    0.60  3.6011  0.990  0.913  0.912  0.790  1.000  2.370  3.312  3.678  3.908  3.916  3.766  3.553
 1020.0   80  1.4200  0.137E-01  0.508  0.913    0.60  3.6964  0.990  0.913  0.915  0.798  1.000  2.394  3.338  3.713  3.951  3.923  3.761  3.478
55555.6   80  1.8123  0.377E+00  0.508  0.913    0.60  0.0604  0.990  0.913  0.001  0.002  1.000  0.007  0.500  0.001  0.000  0.000  0.000  0.000
23529.4   80  1.7926  0.394E+00  0.508  0.913    0.60  0.1599  0.990  0.913  0.014  0.013  1.000  0.040  0.500  0.006  0.000  0.000  0.000  0.000
17699.1   80  1.9542  0.666E+00  0.508  0.913    0.60  0.3263  0.990  0.913  0.033  0.024  1.000  0.073  0.501  0.011  0.000  0.000  0.000  0.000
15037.6   80  1.5722  0.269E+00  0.508  0.913    0.60  0.2167  0.990  0.913  0.035  0.029  1.000  0.088  0.501  0.016  0.000  0.000  0.000  0.000
13157.9   80  1.6818  0.227E+00  0.508  0.913    0.60  0.2090  0.990  0.913  0.076  0.040  1.000  0.121  0.503  0.021  0.000  0.000  0.000  0.000
11111.1   80  1.8154  0.557E+00  0.508  0.913    0.60  0.5813  0.990  0.913  0.094  0.058  1.000  0.175  0.505  0.028  0.001  0.000  0.000  0.000
 9708.7   80  1.8968  0.724E+00  0.508  0.913    0.60  0.8855  0.990  0.913  0.138  0.077  1.000  0.232  0.508  0.036  0.001  0.000  0.000  0.000
 8849.6   80  1.5905  0.805E+00  0.508  0.913    0.60  1.2258  0.990  0.913  0.123  0.079  1.000  0.236  0.510  0.045  0.002  0.000  0.000  0.000
 7782.1   80  1.0819  0.427E+00  0.508  0.913    0.60  0.8246  0.990  0.913  0.062  0.093  1.000  0.279  0.516  0.069  0.004  0.000  0.000  0.000
 6968.6   80  1.2648  0.119E+00  0.508  0.913    0.60  0.2905  0.990  0.913  0.119  0.123  1.000  0.370  0.527  0.080  0.005  0.000  0.000  0.000
 6097.6   80  1.4392  0.178E+00  0.508  0.913    0.60  0.5739  0.990  0.913  0.246  0.178  1.000  0.533  0.552  0.103  0.009  0.000  0.000  0.000
 5154.6   80  1.3947  0.131E+00  0.508  0.913    0.60  0.5864  0.990  0.913  0.325  0.251  1.000  0.754  0.605  0.151  0.018  0.001  0.000  0.000
 4618.9   80  1.4292  0.159E+00  0.508  0.913    0.60  0.8384  0.990  0.913  0.364  0.333  1.000  0.998  0.680  0.199  0.030  0.003  0.000  0.000
 4319.7   80  1.4226  0.148E+00  0.508  0.913    0.60  0.8891  0.990  0.913  0.394  0.386  1.000  1.157  0.744  0.237  0.041  0.004  0.000  0.000
 4016.1   80  1.4213  0.176E+00  0.508  0.913    0.60  1.0876  0.990  0.913  0.382  0.456  1.000  1.367  0.845  0.296  0.060  0.007  0.000  0.000
 3418.8   80  1.3373  0.207E+00  0.508  0.913    0.60  1.2489  0.990  0.913  0.330  0.583  1.000  1.750  1.163  0.498  0.140  0.023  0.002  0.000
 3444.7   80  1.3447  0.208E+00  0.508  0.913    0.60  1.2577  0.990  0.913  0.334  0.579  1.000  1.736  1.146  0.486  0.135  0.022  0.002  0.000
 2777.0   80  1.2968  0.202E-01  0.508  0.913    0.60  0.7258  0.990  0.913  0.802  0.685  1.000  2.056  1.671  0.770  0.269  0.062  0.009  0.001
 2320.2   80  1.3763  0.346E-02  0.508  0.913    0.60  1.5284  0.990  0.913  0.978  0.693  1.000  2.080  2.165  1.331  0.608  0.181  0.039  0.006
 2044.2   80  1.3966  0.455E-02  0.508  0.913    0.60  2.1611  0.990  0.913  0.974  0.757  1.000  2.271  2.569  2.066  1.147  0.400  0.111  0.022
 1778.4   80  1.4098  0.796E-02  0.508  0.913    0.60  2.8115  0.990  0.913  0.961  0.775  1.000  2.326  2.843  2.536  1.768  0.876  0.359  0.095
 1455.2   80  1.4183  0.120E-01  0.508  0.913    0.60  3.6014  0.990  0.913  0.944  0.806  1.000  2.417  3.174  3.313  2.926  2.257  1.320  0.533
 1270.3   80  1.4200  0.137E-01  0.508  0.913    0.60  3.9393  0.990  0.913  0.931  0.812  1.000  2.435  3.352  3.603  3.580  3.184  2.530  1.740
  944.3   80  1.4200  0.137E-01  0.508  0.913    0.60  3.5670  0.990  0.913  0.897  0.785  1.000  2.354  3.315  3.662  3.894  4.030  3.932  3.911
  693.5   80  1.4200  0.137E-01  0.508  0.913    0.60  2.0101  0.990  0.913  0.779  0.631  1.000  1.892  2.419  2.151  2.313  2.254  2.436  2.754
  527.1   80  1.4200  0.137E-01  0.508  0.913    0.60  2.3821  0.990  0.913  0.759  0.764  1.000  2.292  3.435  3.998  4.935  5.455  6.158  6.584
  399.8   80  1.4200  0.137E-01  0.508  0.913    0.60  2.5043  0.990  0.913  0.745  0.859  1.000  2.578  3.904  4.796  5.777  6.400  7.081  7.502
  329.1   80  1.4200  0.137E-01  0.508  0.913    0.60  2.1088  0.990  0.913  0.675  0.853  1.000  2.558  3.728  4.458  5.217  5.726  6.276  6.787
  229.8   80  1.4200  0.137E-01  0.508  0.913    0.60  2.1374  0.990  0.913  0.633  0.886  1.000  2.658  4.041  5.108  6.241  7.241  8.227  9.099
 7082.2   80  1.2291  0.131E+00  0.508  0.913    0.60  0.3036  0.990  0.913  0.088  0.118  1.000  0.354  0.525  0.079  0.005  0.000  0.000  0.000
  300.0   90  1.4200  0.137E-01  0.508  1.045    0.60  2.3376  0.990  1.045  0.685  0.889  1.000  2.667  4.054  5.123  6.230  7.251  8.319  9.328
  400.0   90  1.4200  0.137E-01  0.508  1.045    0.60  2.0678  0.990  1.045  0.683  0.852  1.000  2.555  3.713  4.370  5.023  5.396  5.776  6.055
  440.0   90  1.4200  0.137E-01  0.508  1.045    0.60  2.3278  0.990  1.045  0.727  0.857  1.000  2.572  3.845  4.682  5.569  6.087  6.574  6.943
  500.0   90  1.4200  0.137E-01  0.508  1.045    0.60  2.7259  0.990  1.045  0.773  0.862  1.000  2.585  3.960  4.932  6.097  6.886  7.655  8.149
  550.0   90  1.4200  0.137E-01  0.508  1.045    0.60  2.6728  0.990  1.045  0.781  0.833  1.000  2.499  3.821  4.673  5.724  6.496  7.306  7.808
  600.0   90  1.4200  0.137E-01  0.508  1.045    0.60  2.4002  0.990  1.045  0.762  0.771  1.000  2.314  3.480  4.059  4.977  5.513  6.240  6.642
  675.0   90  1.4200  0.137E-01  0.508  1.045    0.60  1.9240  0.990  1.045  0.745  0.688  1.000  2.065  2.792  2.758  3.236  3.428  3.706  3.901
  800.0   90  1.4200  0.137E-01  0.508  1.045    0.60  2.0205  0.990  1.045  0.786  0.642  1.000  1.926  2.459  2.200  2.374  2.323  2.482  2.815
  870.0   90  1.4200  0.137E-01  0.508  1.045    0.60  2.4232  0.990  1.045  0.823  0.682  1.000  2.045  2.730  2.697  2.854  2.874  3.096  3.297
 1000.0   90  1.4200  0.137E-01  0.508  1.045    0.60  3.0533  0.990  1.045  0.882  0.758  1.000  2.273  3.123  3.388  3.654  3.729  3.850  3.896
 1020.0   90  1.4200  0.137E-01  0.508  1.045    0.60  3.1931  0.990  1.045  0.888  0.774  1.000  2.322  3.192  3.505  3.779  3.878  3.957  3.967
55555.6   90  1.8123  0.377E+00  0.508  1.045    0.60  0.0694  0.990  1.045  0.002  0.003  1.000  0.009  0.500  0.002  0.000  0.000  0.000  0.000
23529.4   90  1.7926  0.394E+00  0.508  1.045    0.60  0.1869  0.990  1.045  0.020  0.017  1.000  0.052  0.500  0.008  0.000  0.000  0.000  0.000
17699.1   90  1.9542  0.666E+00  0.508  1.045    0.60  0.3904  0.990  1.045  0.047  0.032  1.000  0.095  0.501  0.014  0.000  0.000  0.000  0.000
15037.6   90  1.5722  0.269E+00  0.508  1.045    0.60  0.2575  0.990  1.045  0.051  0.038  1.000  0.115  0.502  0.021  0.000  0.000  0.000  0.000
13157.9   90  1.6818  0.227E+00  0.508  1.045    0.60  0.2557  0.990  1.045  0.106  0.053  1.000  0.159  0.504  0.027  0.001  0.000  0.000  0.000
11111.1   90  1.8154  0.557E+00  0.508  1.045    0.60  0.7222  0.990  1.045  0.130  0.077  1.000  0.231  0.509  0.036  0.001  0.000  0.000  0.000
 9708.7   90  1.8968  0.724E+00  0.508  1.045    0.60  1.1208  0.990  1.045  0.184  0.102  1.000  0.307  0.514  0.047  0.002  0.000  0.000  0.000
 8849.6   90  1.5905  0.805E+00  0.508  1.045    0.60  1.4676  0.990  1.045  0.165  0.106  1.000  0.317  0.517  0.060  0.003  0.000  0.000  0.000
 7782.1   90  1.0819  0.427E+00  0.508  1.045    0.60  0.9266  0.990  1.045  0.084  0.126  1.000  0.377  0.529  0.094  0.007  0.000  0.000  0.000
 6968.6   90  1.2648  0.119E+00  0.508  1.045    0.60  0.3511  0.990  1.045  0.156  0.164  1.000  0.493  0.548  0.107  0.009  0.000  0.000  0.000
 6097.6   90  1.4392  0.178E+00  0.508  1.045    0.60  0.7200  0.990  1.045  0.300  0.241  1.000  0.723  0.594  0.140  0.016  0.001  0.000  0.000
 5154.6   90  1.3947  0.131E+00  0.508  1.045    0.60  0.7371  0.990  1.045  0.377  0.343  1.000  1.029  0.696  0.212  0.033  0.003  0.000  0.000
 4618.9   90  1.4292  0.159E+00  0.508  1.045    0.60  1.0430  0.990  1.045  0.406  0.451  1.000  1.354  0.837  0.288  0.057  0.006  0.000  0.000
 4319.7   90  1.4226  0.148E+00  0.508  1.045    0.60  1.1086  0.990  1.045  0.432  0.513  1.000  1.539  0.950  0.348  0.078  0.010  0.001  0.000
 4016.1   90  1.4213  0.176E+00  0.508  1.045    0.60  1.3306  0.990  1.045  0.418  0.579  1.000  1.736  1.113  0.441  0.116  0.017  0.002  0.000
 3418.8   90  1.3373  0.207E+00  0.508  1.045    0.60  1.4549  0.990  1.045  0.366  0.669  1.000  2.007  1.561  0.753  0.264  0.056  0.008  0.001
 3444.7   90  1.3447  0.208E+00  0.508  1.045    0.60  1.4674  0.990  1.045  0.370  0.666  1.000  1.998  1.539  0.736  0.255  0.054  0.007  0.001
 2777.0   90  1.2968  0.202E-01  0.508  1.045    0.60  0.9770  0.990  1.045  0.831  0.706  1.000  2.119  2.078  1.150  0.479  0.138  0.028  0.004
 2320.2   90  1.3763  0.346E-02  0.508  1.045    0.60  1.9926  0.990  1.045  0.979  0.761  1.000  2.283  2.594  2.085  1.164  0.415  0.117  0.024
 2044.2   90  1.3966  0.455E-02  0.508  1.045    0.60  2.6857  0.990  1.045  0.977  0.778  1.000  2.333  2.835  2.521  1.732  0.831  0.331  0.087
 1778.4   90  1.4098  0.796E-02  0.508  1.045    0.60  3.3754  0.990  1.045  0.961  0.796  1.000  2.389  3.124  3.110  2.653  1.896  0.996  0.322
 1455.2   90  1.4183  0.120E-01  0.508  1.045    0.60  3.9476  0.990  1.045  0.939  0.811  1.000  2.433  3.350  3.596  3.569  3.166  2.510  1.721
 1270.3   90  1.4200  0.137E-01  0.508  1.045    0.60  3.9027  0.990  1.045  0.920  0.810  1.000  2.429  3.389  3.771  3.863  3.760  3.355  2.819
  944.3   90  1.4200  0.137E-01  0.508  1.045    0.60  2.9632  0.990  1.045  0.861  0.739  1.000  2.218  3.093  3.232  3.476  3.616  3.708  3.977
  693.5   90  1.4200  0.137E-01  0.508  1.045    0.60  1.9938  0.990  1.045  0.743  0.666  1.000  1.999  2.732  2.591  2.877  3.038  3.292  3.488
  527.1   90  1.4200  0.137E-01  0.508  1.045    0.60  2.7479  0.990  1.045  0.779  0.843  1.000  2.530  3.905  4.842  6.026  6.781  7.584  8.153
  399.8   90  1.4200  0.137E-01  0.508  1.045    0.60  2.0663  0.990  1.045  0.683  0.852  1.000  2.555  3.712  4.369  5.022  5.393  5.772  6.051
  329.1   90  1.4200  0.137E-01  0.508  1.045    0.60  2.4334  0.990  1.045  0.708  0.889  1.000  2.666  4.044  5.086  6.192  7.175  8.232  9.235
  229.8   90  1.4200  0.137E-01  0.508  1.045    0.60  2.2997  0.990  1.045  0.647  0.916  1.000  2.747  4.264  5.545  6.831  8.005  9.188 10.309
 7082.2   90  1.2291  0.131E+00  0.508  1.045    0.60  0.3611  0.990  1.045  0.118  0.157  1.000  0.471  0.545  0.105  0.009  0.000  0.000  0.000
  300.0   95  1.4200  0.137E-01  0.508  1.118    0.60  2.1500  0.990  1.118  0.646  0.878  1.000  2.635  3.985  4.990  6.077  7.022  8.009  8.874
  400.0   95  1.4200  0.137E-01  0.508  1.118    0.60  2.1097  0.990  1.118  0.679  0.856  1.000  2.567  3.747  4.479  5.236  5.751  6.353  6.906
  440.0   95  1.4200  0.137E-01  0.508  1.118    0.60  2.1176  0.990  1.118  0.688  0.844  1.000  2.533  3.702  4.375  5.091  5.459  5.894  6.201
  500.0   95  1.4200  0.137E-01  0.508  1.118    0.60  2.5701  0.990  1.118  0.755  0.866  1.000  2.599  3.948  4.897  5.939  6.626  7.258  7.736
  550.0   95  1.4200  0.137E-01  0.508  1.118    0.60  2.7558  0.990  1.118  0.781  0.856  1.000  2.567  3.947  4.898  5.991  6.801  7.615  8.175
  600.0   95  1.4200  0.137E-01  0.508  1.118    0.60  2.6265  0.990  1.118  0.775  0.817  1.000  2.452  3.754  4.586  5.673  6.386  7.153  7.724
  675.0   95  1.4200  0.137E-01  0.508  1.118    0.60  2.1650  0.990  1.118  0.757  0.743  1.000  2.230  3.229  3.516  4.212  4.656  5.142  5.440
  800.0   95  1.4200  0.137E-01  0.508  1.118    0.60  1.9585  0.990  1.118  0.761  0.653  1.000  1.958  2.540  2.220  2.386  2.356  2.498  2.666
  870.0   95  1.4200  0.137E-01  0.508  1.118    0.60  2.1144  0.990  1.118  0.798  0.666  1.000  1.997  2.589  2.361  2.548  2.520  2.657  2.990
 1000.0   95  1.4200  0.137E-01  0.508  1.118    0.60  2.8982  0.990  1.118  0.859  0.741  1.000  2.222  3.075  3.205  3.453  3.600  3.685  3.979
 1020.0   95  1.4200  0.137E-01  0.508  1.118    0.60  2.9953  0.990  1.118  0.863  0.737  1.000  2.211  3.094  3.244  3.485  3.609  3.714  3.946
55555.6   95  1.8123  0.377E+00  0.508  1.118    0.60  0.0744  0.990  1.118  0.002  0.004  1.000  0.011  0.500  0.002  0.000  0.000  0.000  0.000
23529.4   95  1.7926  0.394E+00  0.508  1.118    0.60  0.2025  0.990  1.118  0.024  0.020  1.000  0.059  0.501  0.010  0.000  0.000  0.000  0.000
17699.1   95  1.9542  0.666E+00  0.508  1.118    0.60  0.4289  0.990  1.118  0.057  0.036  1.000  0.109  0.502  0.016  0.000  0.000  0.000  0.000
15037.6   95  1.5722  0.269E+00  0.508  1.118    0.60  0.2817  0.990  1.118  0.060  0.044  1.000  0.132  0.503  0.024  0.000  0.000  0.000  0.000
13157.9   95  1.6818  0.227E+00  0.508  1.118    0.60  0.2847  0.990  1.118  0.125  0.061  1.000  0.182  0.506  0.031  0.001  0.000  0.000  0.000
11111.1   95  1.8154  0.557E+00  0.508  1.118    0.60  0.8094  0.990  1.118  0.151  0.089  1.000  0.266  0.511  0.042  0.001  0.000  0.000  0.000
 9708.7   95  1.8968  0.724E+00  0.508  1.118    0.60  1.2641  0.990  1.118  0.209  0.118  1.000  0.355  0.519  0.054  0.003  0.000  0.000  0.000
 8849.6   95  1.5905  0.805E+00  0.508  1.118    0.60  1.5991  0.990  1.118  0.188  0.123  1.000  0.368  0.523  0.070  0.004  0.000  0.000  0.000
 7782.1   95  1.0819  0.427E+00  0.508  1.118    0.60  0.9793  0.990  1.118  0.097  0.146  1.000  0.439  0.540  0.110  0.009  0.000  0.000  0.000
 6968.6   95  1.2648  0.119E+00  0.508  1.118    0.60  0.3864  0.990  1.118  0.177  0.190  1.000  0.570  0.564  0.125  0.012  0.001  0.000  0.000
 6097.6   95  1.4392  0.178E+00  0.508  1.118    0.60  0.8047  0.990  1.118  0.326  0.282  1.000  0.846  0.628  0.165  0.021  0.002  0.000  0.000
 5154.6   95  1.3947  0.131E+00  0.508  1.118    0.60  0.8240  0.990  1.118  0.399  0.400  1.000  1.200  0.767  0.254  0.046  0.005  0.000  0.000
 4618.9   95  1.4292  0.159E+00  0.508  1.118    0.60  1.1616  0.990  1.118  0.424  0.516  1.000  1.548  0.954  0.350  0.079  0.010  0.001  0.000
 4319.7   95  1.4226  0.148E+00  0.508  1.118    0.60  1.2370  0.990  1.118  0.451  0.574  1.000  1.721  1.094  0.424  0.109  0.016  0.002  0.000
 4016.1   95  1.4213  0.176E+00  0.508  1.118    0.60  1.4647  0.990  1.118  0.437  0.626  1.000  1.878  1.285  0.541  0.160  0.028  0.003  0.000
 3418.8   95  1.3373  0.207E+00  0.508  1.118    0.60  1.5591  0.990  1.118  0.385  0.695  1.000  2.086  1.789  0.932  0.359  0.088  0.014  0.002
 3444.7   95  1.3447  0.208E+00  0.508  1.118    0.60  1.5733  0.990  1.118  0.389  0.692  1.000  2.077  1.765  0.911  0.347  0.083  0.013  0.001
 2777.0   95  1.2968  0.202E-01  0.508  1.118    0.60  1.1043  0.990  1.118  0.841  0.722  1.000  2.166  2.290  1.434  0.656  0.209  0.048  0.008
 2320.2   95  1.3763  0.346E-02  0.508  1.118    0.60  2.2839  0.990  1.118  0.980  0.779  1.000  2.338  2.732  2.357  1.459  0.591  0.196  0.046
 2044.2   95  1.3966  0.455E-02  0.508  1.118    0.60  2.8995  0.990  1.118  0.977  0.783  1.000  2.349  2.998  2.777  2.154  1.272  0.592  0.172
 1778.4   95  1.4098  0.796E-02  0.508  1.118    0.60  3.5741  0.990  1.118  0.962  0.806  1.000  2.419  3.179  3.314  2.924  2.251  1.314  0.525
 1455.2   95  1.4183  0.120E-01  0.508  1.118    0.60  3.9003  0.990  1.118  0.938  0.808  1.000  2.424  3.342  3.683  3.697  3.467  2.874  2.163
 1270.3   95  1.4200  0.137E-01  0.508  1.118    0.60  3.7944  0.990  1.118  0.917  0.804  1.000  2.413  3.365  3.745  3.979  3.928  3.747  3.406
  944.3   95  1.4200  0.137E-01  0.508  1.118    0.60  2.4313  0.990  1.118  0.833  0.696  1.000  2.089  2.762  2.782  2.961  3.013  3.200  3.431
  693.5   95  1.4200  0.137E-01  0.508  1.118    0.60  2.1440  0.990  1.118  0.744  0.697  1.000  2.092  3.043  3.210  3.871  4.117  4.709  4.953
  527.1   95  1.4200  0.137E-01  0.508  1.118    0.60  2.7054  0.990  1.118  0.773  0.860  1.000  2.581  3.969  4.953  6.082  6.810  7.570  8.097
  399.8   95  1.4200  0.137E-01  0.508  1.118    0.60  2.1100  0.990  1.118  0.679  0.856  1.000  2.568  3.749  4.481  5.238  5.752  6.358  6.912
  329.1   95  1.4200  0.137E-01  0.508  1.118    0.60  2.3867  0.990  1.118  0.695  0.892  1.000  2.675  4.077  5.145  6.281  7.325  8.434  9.434
  229.8   95  1.4200  0.137E-01  0.508  1.118    0.60  2.1598  0.990  1.118  0.614  0.912  1.000  2.736  4.228  5.477  6.720  7.871  9.031 10.129
 7082.2   95  1.2291  0.131E+00  0.508  1.118    0.60  0.3941  0.990  1.118  0.135  0.182  1.000  0.545  0.559  0.122  0.012  0.001  0.000  0.000
  300.0   99  1.4200  0.137E-01  0.508  1.118    0.60  2.1500  0.990  1.118  0.646  0.878  1.000  2.635  3.985  4.990  6.077  7.022  8.009  8.874
  400.0   99  1.4200  0.137E-01  0.508  1.118    0.60  2.1097  0.990  1.118  0.679  0.856  1.000  2.567  3.747  4.479  5.236  5.751  6.353  6.906
  440.0   99  1.4200  0.137E-01  0.508  1.118    0.60  2.1176  0.990  1.118  0.688  0.844  1.000  2.533  3.702  4.375  5.091  5.459  5.894  6.201
  500.0   99  1.4200  0.137E-01  0.508  1.118    0.60  2.5701  0.990  1.118  0.755  0.866  1.000  2.599  3.948  4.897  5.939  6.626  7.258  7.736
  550.0   99  1.4200  0.137E-01  0.508  1.118    0.60  2.7558  0.990  1.118  0.781  0.856  1.000  2.567  3.947  4.898  5.991  6.801  7.615  8.175
  600.0   99  1.4200  0.137E-01  0.508  1.118    0.60  2.6265  0.990  1.118  0.775  0.817  1.000  2.452  3.754  4.586  5.673  6.386  7.153  7.724
  675.0   99  1.4200  0.137E-01  0.508  1.118    0.60  2.1650  0.990  1.118  0.757  0.743  1.000  2.230  3.229  3.516  4.212  4.656  5.142  5.440
  800.0   99  1.4200  0.137E-01  0.508  1.118    0.60  1.9585  0.990  1.118  0.761  0.653  1.000  1.958  2.540  2.220  2.386  2.356  2.498  2.666
  870.0   99  1.4200  0.137E-01  0.508  1.118    0.60  2.1144  0.990  1.118  0.798  0.666  1.000  1.997  2.589  2.361  2.548  2.520  2.657  2.990
 1000.0   99  1.4200  0.137E-01  0.508  1.118    0.60  2.8982  0.990  1.118  0.859  0.741  1.000  2.222  3.075  3.205  3.453  3.600  3.685  3.979
 1020.0   99  1.4200  0.137E-01  0.508  1.118    0.60  2.9953  0.990  1.118  0.863  0.737  1.000  2.211  3.094  3.244  3.485  3.609  3.714  3.946
55555.6   99  1.8123  0.377E+00  0.508  1.118    0.60  0.0744  0.990  1.118  0.002  0.004  1.000  0.011  0.500  0.002  0.000  0.000  0.000  0.000
23529.4   99  1.7926  0.394E+00  0.508  1.118    0.60  0.2025  0.990  1.118  0.024  0.020  1.000  0.059  0.501  0.010  0.000  0.000  0.000  0.000
17699.1   99  1.9542  0.666E+00  0.508  1.118    0.60  0.4289  0.990  1.118  0.057  0.036  1.000  0.109  0.502  0.016  0.000  0.000  0.000  0.000
15037.6   99  1.5722  0.269E+00  0.508  1.118    0.60  0.2817  0.990  1.118  0.060  0.044  1.000  0.132  0.503  0.024  0.000  0.000  0.000  0.000
13157.9   99  1.6818  0.227E+00  0.508  1.118    0.60  0.2847  0.990  1.118  0.125  0.061  1.000  0.182  0.506  0.031  0.001  0.000  0.000  0.000
11111.1   99  1.8154  0.557E+00  0.508  1.118    0.60  0.8094  0.990  1.118  0.151  0.089  1.000  0.266  0.511  0.042  0.001  0.000  0.000  0.000
 9708.7   99  1.8968  0.724E+00  0.508  1.118    0.60  1.2641  0.990  1.118  0.209  0.118  1.000  0.355  0.519  0.054  0.003  0.000  0.000  0.000
 8849.6   99  1.5905  0.805E+00  0.508  1.118    0.60  1.5991  0.990  1.118  0.188  0.123  1.000  0.368  0.523  0.070  0.004  0.000  0.000  0.000
 7782.1   99  1.0819  0.427E+00  0.508  1.118    0.60  0.9793  0.990  1.118  0.097  0.146  1.000  0.439  0.540  0.110  0.009  0.000  0.000  0.000
 6968.6   99  1.2648  0.119E+00  0.508  1.118    0.60  0.3864  0.990  1.118  0.177  0.190  1.000  0.570  0.564  0.125  0.012  0.001  0.000  0.000
 6097.6   99  1.4392  0.178E+00  0.508  1.118    0.60  0.8047  0.990  1.118  0.326  0.282  1.000  0.846  0.628  0.165  0.021  0.002  0.000  0.000
 5154.6   99  1.3947  0.131E+00  0.508  1.118    0.60  0.8240  0.990  1.118  0.399  0.400  1.000  1.200  0.767  0.254  0.046  0.005  0.000  0.000
 4618.9   99  1.4292  0.159E+00  0.508  1.118    0.60  1.1616  0.990  1.118  0.424  0.516  1.000  1.548  0.954  0.350  0.079  0.010  0.001  0.000
 4319.7   99  1.4226  0.148E+00  0.508  1.118    0.60  1.2370  0.990  1.118  0.451  0.574  1.000  1.721  1.094  0.424  0.109  0.016  0.002  0.000
 4016.1   99  1.4213  0.176E+00  0.508  1.118    0.60  1.4647  0.990  1.118  0.437  0.626  1.000  1.878  1.285  0.541  0.160  0.028  0.003  0.000
 3418.8   99  1.3373  0.207E+00  0.508  1.118    0.60  1.5591  0.990  1.118  0.385  0.695  1.000  2.086  1.789  0.932  0.359  0.088  0.014  0.002
 3444.7   99  1.3447  0.208E+00  0.508  1.118    0.60  1.5733  0.990  1.118  0.389  0.692  1.000  2.077  1.765  0.911  0.347  0.083  0.013  0.001
 2777.0   99  1.2968  0.202E-01  0.508  1.118    0.60  1.1043  0.990  1.118  0.841  0.722  1.000  2.166  2.290  1.434  0.656  0.209  0.048  0.008
 2320.2   99  1.3763  0.346E-02  0.508  1.118    0.60  2.2839  0.990  1.118  0.980  0.779  1.000  2.338  2.732  2.357  1.459  0.591  0.196  0.046
 2044.2   99  1.3966  0.455E-02  0.508  1.118    0.60  2.8995  0.990  1.118  0.977  0.783  1.000  2.349  2.998  2.777  2.154  1.272  0.592  0.172
 1778.4   99  1.4098  0.796E-02  0.508  1.118    0.60  3.5741  0.990  1.118  0.962  0.806  1.000  2.419  3.179  3.314  2.924  2.251  1.314  0.525
 1455.2   99  1.4183  0.120E-01  0.508  1.118    0.60  3.9003  0.990  1.118  0.938  0.808  1.000  2.424  3.342  3.683  3.697  3.467  2.874  2.163
 1270.3   99  1.4200  0.137E-01  0.508  1.118    0.60  3.7944  0.990  1.118  0.917  0.804  1.000  2.413  3.365  3.745  3.979  3.928  3.747  3.406
  944.3   99  1.4200  0.137E-01  0.508  1.118    0.60  2.4313  0.990  1.118  0.833  0.696  1.000  2.089  2.762  2.782  2.961  3.013  3.200  3.431
  693.5   99  1.4200  0.137E-01  0.508  1.118    0.60  2.1440  0.990  1.118  0.744  0.697  1.000  2.092  3.043  3.210  3.871  4.117  4.709  4.953
  527.1   99  1.4200  0.137E-01  0.508  1.118    0.60  2.7054  0.990  1.118  0.773  0.860  1.000  2.581  3.969  4.953  6.082  6.810  7.570  8.097
  399.8   99  1.4200  0.137E-01  0.508  1.118    0.60  2.1100  0.990  1.118  0.679  0.856  1.000  2.568  3.749  4.481  5.238  5.752  6.358  6.912
  329.1   99  1.4200  0.137E-01  0.508  1.118    0.60  2.3867  0.990  1.118  0.695  0.892  1.000  2.675  4.077  5.145  6.281  7.325  8.434  9.434
  229.8   99  1.4200  0.137E-01  0.508  1.118    0.60  2.1598  0.990  1.118  0.614  0.912  1.000  2.736  4.228  5.477  6.720  7.871  9.031 10.129
 7082.2   99  1.2291  0.131E+00  0.508  1.118    0.60  0.3941  0.990  1.118  0.135  0.182  1.000  0.545  0.559  0.122  0.012  0.001  0.000  0.000
