 h2so4 RRTMG LUT interpolated from GADS (DAR 09/2013)
 V0.1 - contains Fast-J wavelengths but is the same as the original jv_spec.dat values
  w(nm)   RH       N         iK  RgDry  RgWet      Sg       Q  Alpha  r-eff ss-alb  g-sym  pi(0)  pi(1)  pi(2)  pi(3)  pi(4)  pi(5)  pi(6)  pi(7)
  300.0    0  1.3326  0.000E+00  1.016  1.016    0.60  2.0039  0.990  1.016  1.000  0.739  1.000  2.216  3.341  3.522  3.990  4.189  4.363  4.465
  400.0    0  1.3326  0.000E+00  1.016  1.016    0.60  2.8132  0.990  1.016  1.000  0.830  1.000  2.491  3.864  4.625  5.528  6.248  7.006  7.643
  440.0    0  1.3326  0.000E+00  1.016  1.016    0.60  2.4133  0.990  1.016  1.000  0.796  1.000  2.388  3.660  4.204  5.041  5.675  6.354  6.870
  500.0    0  1.3326  0.000E+00  1.016  1.016    0.60  1.8491  0.990  1.016  1.000  0.713  1.000  2.139  3.057  3.030  3.308  3.468  3.715  3.895
  550.0    0  1.3326  0.000E+00  1.016  1.016    0.60  1.8450  0.990  1.016  1.000  0.651  1.000  1.954  2.688  2.372  2.234  2.025  2.058  1.992
  600.0    0  1.3326  0.000E+00  1.016  1.016    0.60  1.9653  0.990  1.016  1.000  0.643  1.000  1.928  2.625  2.292  2.133  1.813  1.804  1.744
  675.0    0  1.3326  0.000E+00  1.016  1.016    0.60  2.2928  0.990  1.016  1.000  0.726  1.000  2.178  2.978  2.981  3.052  2.926  2.944  3.033
  800.0    0  1.3326  0.000E+00  1.016  1.016    0.60  3.2897  0.990  1.016  1.000  0.800  1.000  2.400  3.437  3.880  4.140  4.274  4.345  4.392
  870.0    0  1.3326  0.000E+00  1.016  1.016    0.60  3.7276  0.990  1.016  1.000  0.827  1.000  2.480  3.604  4.125  4.470  4.629  4.642  4.670
 1000.0    0  1.3326  0.000E+00  1.016  1.016    0.60  3.9632  0.990  1.016  1.000  0.845  1.000  2.534  3.672  4.247  4.537  4.621  4.431  4.199
 1020.0    0  1.3326  0.000E+00  1.016  1.016    0.60  3.9135  0.990  1.016  1.000  0.843  1.000  2.528  3.658  4.221  4.492  4.534  4.312  4.029
55555.6    0  1.1684  0.258E+00  1.016  1.016    0.60  0.0742  0.990  1.016  0.000  0.002  1.000  0.007  0.500  0.002  0.000  0.000  0.000  0.000
23529.4    0  1.1684  0.258E+00  1.016  1.016    0.60  0.1772  0.990  1.016  0.003  0.012  1.000  0.037  0.500  0.009  0.000  0.000  0.000  0.000
17699.1    0  1.1684  0.258E+00  1.016  1.016    0.60  0.2378  0.990  1.016  0.007  0.022  1.000  0.066  0.501  0.015  0.000  0.000  0.000  0.000
15037.6    0  1.1684  0.258E+00  1.016  1.016    0.60  0.2820  0.990  1.016  0.012  0.031  1.000  0.092  0.502  0.021  0.000  0.000  0.000  0.000
13157.9    0  1.1684  0.258E+00  1.016  1.016    0.60  0.3246  0.990  1.016  0.017  0.040  1.000  0.120  0.503  0.028  0.001  0.000  0.000  0.000
11111.1    0  1.1796  0.164E+00  1.016  1.016    0.60  0.2471  0.990  1.016  0.026  0.057  1.000  0.171  0.506  0.039  0.001  0.000  0.000  0.000
 9708.7    0  1.3159  0.103E+00  1.016  1.016    0.60  0.1908  0.990  1.016  0.103  0.079  1.000  0.237  0.511  0.050  0.002  0.000  0.000  0.000
 8849.6    0  1.2787  0.149E+00  1.016  1.016    0.60  0.2994  0.990  1.016  0.084  0.094  1.000  0.283  0.516  0.061  0.003  0.000  0.000  0.000
 7782.1    0  1.2991  0.655E-01  1.016  1.016    0.60  0.1813  0.990  1.016  0.213  0.123  1.000  0.368  0.527  0.078  0.005  0.000  0.000  0.000
 6968.6    0  1.3311  0.555E-01  1.016  1.016    0.60  0.2074  0.990  1.016  0.333  0.156  1.000  0.468  0.543  0.097  0.008  0.000  0.000  0.000
 6097.6    0  1.3533  0.119E+00  1.016  1.016    0.60  0.4643  0.990  1.016  0.276  0.214  1.000  0.642  0.578  0.132  0.014  0.001  0.000  0.000
 5154.6    0  1.3366  0.293E-01  1.016  1.016    0.60  0.2981  0.990  1.016  0.640  0.298  1.000  0.894  0.655  0.190  0.027  0.002  0.000  0.000
 4618.9    0  1.3577  0.343E-01  1.016  1.016    0.60  0.4362  0.990  1.016  0.668  0.387  1.000  1.161  0.760  0.251  0.045  0.005  0.000  0.000
 4319.7    0  1.3621  0.267E-01  1.016  1.016    0.60  0.4830  0.990  1.016  0.743  0.448  1.000  1.343  0.851  0.298  0.061  0.007  0.001  0.000
 4016.1    0  1.3799  0.213E-01  1.016  1.016    0.60  0.5938  0.990  1.016  0.810  0.524  1.000  1.571  0.991  0.361  0.084  0.012  0.001  0.000
 3418.8    0  1.4670  0.487E-01  1.016  1.016    0.60  1.4531  0.990  1.016  0.763  0.648  1.000  1.943  1.401  0.555  0.171  0.032  0.004  0.000
 3444.7    0  1.4602  0.438E-01  1.016  1.016    0.60  1.3752  0.990  1.016  0.775  0.646  1.000  1.939  1.383  0.542  0.164  0.030  0.004  0.000
 2777.0    0  1.1248  0.530E-01  1.016  1.016    0.60  0.4510  0.990  1.016  0.286  0.729  1.000  2.188  1.987  1.103  0.456  0.132  0.026  0.004
 2320.2    0  1.2971  0.000E+00  1.016  1.016    0.60  1.1894  0.990  1.016  1.000  0.746  1.000  2.238  2.516  1.823  0.940  0.333  0.089  0.017
 2044.2    0  1.3176  0.000E+00  1.016  1.016    0.60  1.7719  0.990  1.016  1.000  0.795  1.000  2.384  2.829  2.475  1.580  0.679  0.233  0.058
 1778.4    0  1.3291  0.000E+00  1.016  1.016    0.60  2.3518  0.990  1.016  1.000  0.808  1.000  2.425  3.140  2.975  2.374  1.443  0.686  0.222
 1455.2    0  1.3326  0.000E+00  1.016  1.016    0.60  3.1479  0.990  1.016  1.000  0.840  1.000  2.520  3.434  3.693  3.438  2.816  1.953  1.053
 1270.3    0  1.3326  0.000E+00  1.016  1.016    0.60  3.6227  0.990  1.016  1.000  0.844  1.000  2.532  3.561  3.981  4.007  3.686  3.046  2.274
  944.3    0  1.3326  0.000E+00  1.016  1.016    0.60  3.8578  0.990  1.016  1.000  0.844  1.000  2.531  3.641  4.242  4.578  4.689  4.623  4.431
  693.5    0  1.3326  0.000E+00  1.016  1.016    0.60  2.5644  0.990  1.016  1.000  0.757  1.000  2.271  3.162  3.296  3.380  3.386  3.389  3.499
  527.1    0  1.3326  0.000E+00  1.016  1.016    0.60  1.7205  0.990  1.016  1.000  0.634  1.000  1.902  2.640  2.296  2.459  2.335  2.438  2.625
  399.8    0  1.3326  0.000E+00  1.016  1.016    0.60  2.8069  0.990  1.016  1.000  0.831  1.000  2.494  3.868  4.631  5.534  6.255  7.010  7.645
  329.1    0  1.3326  0.000E+00  1.016  1.016    0.60  2.0410  0.990  1.016  1.000  0.827  1.000  2.481  3.689  4.151  4.653  4.866  5.047  5.215
  229.8    0  1.3326  0.000E+00  1.016  1.016    0.60  2.2592  0.990  1.016  1.000  0.842  1.000  2.525  3.810  4.470  5.091  5.778  6.354  7.107
 7082.2    0  1.3270  0.562E-01  1.016  1.016    0.60  0.2011  0.990  1.016  0.317  0.151  1.000  0.452  0.540  0.094  0.007  0.000  0.000  0.000
  300.0   50  1.3797  0.114E-01  1.016  1.523    0.60  2.2833  0.990  1.523  0.657  0.917  1.000  2.752  4.279  5.546  6.822  8.003  9.181 10.301
  400.0   50  1.3797  0.114E-01  1.016  1.523    0.60  2.3569  0.990  1.523  0.706  0.896  1.000  2.688  4.103  5.176  6.265  7.284  8.341  9.382
  440.0   50  1.3797  0.114E-01  1.016  1.523    0.60  2.4226  0.990  1.523  0.725  0.895  1.000  2.686  4.089  5.129  6.167  7.088  8.078  9.025
  500.0   50  1.3797  0.114E-01  1.016  1.523    0.60  2.0774  0.990  1.523  0.695  0.865  1.000  2.594  3.819  4.557  5.259  5.755  6.268  6.717
  550.0   50  1.3797  0.114E-01  1.016  1.523    0.60  2.1208  0.990  1.523  0.714  0.857  1.000  2.571  3.812  4.529  5.292  5.728  6.206  6.480
  600.0   50  1.3797  0.114E-01  1.016  1.523    0.60  2.4690  0.990  1.523  0.757  0.868  1.000  2.603  3.969  4.877  5.896  6.602  7.265  7.726
  675.0   50  1.3797  0.114E-01  1.016  1.523    0.60  2.6821  0.990  1.523  0.796  0.864  1.000  2.592  3.995  4.956  6.106  6.986  7.830  8.453
  800.0   50  1.3797  0.114E-01  1.016  1.523    0.60  2.3395  0.990  1.523  0.778  0.767  1.000  2.300  3.443  3.980  4.839  5.407  6.090  6.665
  870.0   50  1.3797  0.114E-01  1.016  1.523    0.60  1.9900  0.990  1.523  0.761  0.697  1.000  2.092  2.933  3.048  3.615  3.884  4.297  4.695
 1000.0   50  1.3797  0.114E-01  1.016  1.523    0.60  2.0303  0.990  1.523  0.783  0.661  1.000  1.983  2.660  2.429  2.465  2.414  2.573  2.755
 1020.0   50  1.3797  0.114E-01  1.016  1.523    0.60  1.9806  0.990  1.523  0.787  0.646  1.000  1.937  2.549  2.292  2.407  2.267  2.462  2.671
55555.6   50  1.7343  0.386E+00  1.016  1.523    0.60  0.1120  0.990  1.523  0.004  0.006  1.000  0.019  0.500  0.003  0.000  0.000  0.000  0.000
23529.4   50  1.7349  0.395E+00  1.016  1.523    0.60  0.3111  0.990  1.523  0.050  0.036  1.000  0.107  0.502  0.018  0.000  0.000  0.000  0.000
17699.1   50  1.7588  0.446E+00  1.016  1.523    0.60  0.5213  0.990  1.523  0.103  0.063  1.000  0.190  0.506  0.031  0.001  0.000  0.000  0.000
15037.6   50  1.5027  0.362E+00  1.016  1.523    0.60  0.5820  0.990  1.523  0.096  0.079  1.000  0.238  0.510  0.045  0.002  0.000  0.000  0.000
13157.9   50  1.5337  0.292E+00  1.016  1.523    0.60  0.5877  0.990  1.523  0.152  0.107  1.000  0.320  0.518  0.059  0.003  0.000  0.000  0.000
11111.1   50  1.5882  0.344E+00  1.016  1.523    0.60  0.8998  0.990  1.523  0.222  0.158  1.000  0.475  0.538  0.083  0.006  0.000  0.000  0.000
 9708.7   50  1.6413  0.508E+00  1.016  1.523    0.60  1.5081  0.990  1.523  0.269  0.220  1.000  0.659  0.570  0.114  0.011  0.001  0.000  0.000
 8849.6   50  1.4307  0.516E+00  1.016  1.523    0.60  1.5226  0.990  1.523  0.230  0.249  1.000  0.748  0.600  0.156  0.019  0.001  0.000  0.000
 7782.1   50  1.2466  0.243E+00  1.016  1.523    0.60  0.8628  0.990  1.523  0.178  0.304  1.000  0.913  0.663  0.213  0.033  0.003  0.000  0.000
 6968.6   50  1.3269  0.172E+00  1.016  1.523    0.60  0.8559  0.990  1.523  0.290  0.397  1.000  1.190  0.772  0.271  0.051  0.005  0.000  0.000
 6097.6   50  1.4180  0.218E+00  1.016  1.523    0.60  1.3653  0.990  1.523  0.370  0.544  1.000  1.632  1.026  0.402  0.100  0.014  0.001  0.000
 5154.6   50  1.3078  0.147E+00  1.016  1.523    0.60  1.1272  0.990  1.523  0.375  0.649  1.000  1.946  1.419  0.645  0.208  0.041  0.005  0.000
 4618.9   50  1.3434  0.122E+00  1.016  1.523    0.60  1.3462  0.990  1.523  0.485  0.694  1.000  2.081  1.763  0.876  0.326  0.078  0.012  0.001
 4319.7   50  1.3490  0.116E+00  1.016  1.523    0.60  1.4752  0.990  1.523  0.522  0.708  1.000  2.124  1.981  1.080  0.438  0.117  0.021  0.003
 4016.1   50  1.3559  0.107E+00  1.016  1.523    0.60  1.6218  0.990  1.523  0.566  0.725  1.000  2.174  2.222  1.364  0.608  0.183  0.039  0.006
 3418.8   50  1.3709  0.124E+00  1.016  1.523    0.60  2.0952  0.990  1.523  0.577  0.791  1.000  2.374  2.738  2.236  1.272  0.510  0.154  0.033
 3444.7   50  1.3700  0.120E+00  1.016  1.523    0.60  2.0686  0.990  1.523  0.581  0.788  1.000  2.364  2.716  2.192  1.229  0.485  0.143  0.030
 2777.0   50  1.1943  0.474E-01  1.016  1.523    0.60  1.1227  0.990  1.523  0.600  0.845  1.000  2.534  3.186  3.006  2.176  1.168  0.486  0.154
 2320.2   50  1.3325  0.980E-03  1.016  1.523    0.60  2.9532  0.990  1.523  0.994  0.832  1.000  2.495  3.338  3.516  3.142  2.448  1.502  0.657
 2044.2   50  1.3546  0.233E-02  1.016  1.523    0.60  3.6443  0.990  1.523  0.987  0.836  1.000  2.509  3.491  3.801  3.760  3.303  2.614  1.778
 1778.4   50  1.3679  0.541E-02  1.016  1.523    0.60  3.9416  0.990  1.523  0.967  0.837  1.000  2.511  3.552  4.017  4.141  4.012  3.591  3.010
 1455.2   50  1.3775  0.919E-02  1.016  1.523    0.60  3.5396  0.990  1.523  0.930  0.815  1.000  2.445  3.443  3.916  4.217  4.327  4.324  4.229
 1270.3   50  1.3797  0.114E-01  1.016  1.523    0.60  2.8517  0.990  1.523  0.882  0.771  1.000  2.313  3.188  3.490  3.740  3.875  3.987  4.154
  944.3   50  1.3797  0.114E-01  1.016  1.523    0.60  1.8506  0.990  1.523  0.763  0.651  1.000  1.954  2.569  2.350  2.604  2.558  2.792  3.001
  693.5   50  1.3797  0.114E-01  1.016  1.523    0.60  2.7347  0.990  1.523  0.800  0.849  1.000  2.547  3.936  4.870  5.979  6.810  7.709  8.358
  527.1   50  1.3797  0.114E-01  1.016  1.523    0.60  2.0322  0.990  1.523  0.699  0.856  1.000  2.568  3.762  4.439  5.116  5.488  5.916  6.209
  399.8   50  1.3797  0.114E-01  1.016  1.523    0.60  2.3564  0.990  1.523  0.706  0.896  1.000  2.688  4.103  5.175  6.264  7.281  8.337  9.378
  329.1   50  1.3797  0.114E-01  1.016  1.523    0.60  2.2270  0.990  1.523  0.664  0.906  1.000  2.719  4.189  5.355  6.534  7.633  8.716  9.743
  229.8   50  1.3797  0.114E-01  1.016  1.523    0.60  2.1556  0.990  1.523  0.606  0.929  1.000  2.788  4.368  5.745  7.101  8.425  9.742 11.032
 7082.2   50  1.3166  0.180E+00  1.016  1.523    0.60  0.8457  0.990  1.523  0.272  0.382  1.000  1.145  0.752  0.261  0.048  0.005  0.000  0.000
  300.0   70  1.4179  0.173E-01  1.016  1.699    0.60  2.2356  0.990  1.699  0.584  0.938  1.000  2.813  4.459  5.960  7.435  8.867 10.282 11.637
  400.0   70  1.4179  0.173E-01  1.016  1.699    0.60  2.2605  0.990  1.699  0.610  0.918  1.000  2.753  4.293  5.618  6.949  8.170  9.360 10.442
  440.0   70  1.4179  0.173E-01  1.016  1.699    0.60  2.1318  0.990  1.699  0.597  0.898  1.000  2.694  4.123  5.290  6.478  7.560  8.617  9.561
  500.0   70  1.4179  0.173E-01  1.016  1.699    0.60  2.3802  0.990  1.699  0.656  0.905  1.000  2.714  4.170  5.349  6.551  7.680  8.843  9.909
  550.0   70  1.4179  0.173E-01  1.016  1.699    0.60  2.3768  0.990  1.699  0.665  0.898  1.000  2.694  4.097  5.196  6.276  7.262  8.294  9.299
  600.0   70  1.4179  0.173E-01  1.016  1.699    0.60  2.1564  0.990  1.699  0.640  0.877  1.000  2.630  3.908  4.787  5.634  6.291  7.029  7.666
  675.0   70  1.4179  0.173E-01  1.016  1.699    0.60  2.1767  0.990  1.699  0.655  0.862  1.000  2.585  3.840  4.680  5.528  6.029  6.526  6.881
  800.0   70  1.4179  0.173E-01  1.016  1.699    0.60  2.6810  0.990  1.699  0.734  0.872  1.000  2.616  4.031  5.092  6.258  7.064  7.864  8.433
  870.0   70  1.4179  0.173E-01  1.016  1.699    0.60  2.6309  0.990  1.699  0.744  0.857  1.000  2.570  3.935  4.899  6.075  6.910  7.728  8.237
 1000.0   70  1.4179  0.173E-01  1.016  1.699    0.60  2.2025  0.990  1.699  0.715  0.771  1.000  2.312  3.364  3.893  4.794  5.369  5.933  6.344
 1020.0   70  1.4179  0.173E-01  1.016  1.699    0.60  2.1642  0.990  1.699  0.714  0.763  1.000  2.289  3.310  3.706  4.452  4.967  5.474  5.813
55555.6   70  1.8355  0.478E+00  1.016  1.699    0.60  0.1429  0.990  1.699  0.007  0.008  1.000  0.025  0.500  0.004  0.000  0.000  0.000  0.000
23529.4   70  1.8130  0.494E+00  1.016  1.699    0.60  0.4288  0.990  1.699  0.071  0.045  1.000  0.136  0.503  0.022  0.000  0.000  0.000  0.000
17699.1   70  1.9871  0.642E+00  1.016  1.699    0.60  0.8096  0.990  1.699  0.164  0.086  1.000  0.259  0.510  0.037  0.001  0.000  0.000  0.000
15037.6   70  1.5717  0.318E+00  1.016  1.699    0.60  0.6114  0.990  1.699  0.152  0.103  1.000  0.310  0.517  0.055  0.003  0.000  0.000  0.000
13157.9   70  1.6893  0.278E+00  1.016  1.699    0.60  0.7206  0.990  1.699  0.266  0.146  1.000  0.437  0.531  0.071  0.004  0.000  0.000  0.000
11111.1   70  1.7564  0.559E+00  1.016  1.699    0.60  1.6385  0.990  1.699  0.293  0.217  1.000  0.651  0.564  0.104  0.009  0.000  0.000  0.000
 9708.7   70  1.8590  0.755E+00  1.016  1.699    0.60  2.3979  0.990  1.699  0.359  0.289  1.000  0.867  0.608  0.146  0.018  0.001  0.000  0.000
 8849.6   70  1.6034  0.777E+00  1.016  1.699    0.60  2.3091  0.990  1.699  0.330  0.325  1.000  0.975  0.659  0.214  0.036  0.003  0.000  0.000
 7782.1   70  1.1347  0.407E+00  1.016  1.699    0.60  1.3019  0.990  1.699  0.190  0.382  1.000  1.145  0.775  0.322  0.068  0.008  0.001  0.000
 6968.6   70  1.2809  0.172E+00  1.016  1.699    0.60  0.9064  0.990  1.699  0.276  0.486  1.000  1.457  0.933  0.374  0.088  0.012  0.001  0.000
 6097.6   70  1.4549  0.217E+00  1.016  1.699    0.60  1.6797  0.990  1.699  0.428  0.628  1.000  1.883  1.301  0.559  0.170  0.030  0.003  0.000
 5154.6   70  1.3515  0.151E+00  1.016  1.699    0.60  1.4658  0.990  1.699  0.452  0.695  1.000  2.085  1.783  0.904  0.342  0.082  0.013  0.001
 4618.9   70  1.4025  0.150E+00  1.016  1.699    0.60  1.8844  0.990  1.699  0.529  0.720  1.000  2.159  2.167  1.318  0.580  0.168  0.034  0.005
 4319.7   70  1.4035  0.143E+00  1.016  1.699    0.60  2.0201  0.990  1.699  0.552  0.744  1.000  2.233  2.395  1.637  0.785  0.255  0.059  0.010
 4016.1   70  1.4100  0.161E+00  1.016  1.699    0.60  2.2353  0.990  1.699  0.544  0.777  1.000  2.330  2.633  2.046  1.100  0.413  0.114  0.022
 3418.8   70  1.3584  0.195E+00  1.016  1.699    0.60  2.2757  0.990  1.699  0.496  0.825  1.000  2.474  3.072  2.857  2.009  1.056  0.418  0.117
 3444.7   70  1.3646  0.194E+00  1.016  1.699    0.60  2.2927  0.990  1.699  0.500  0.822  1.000  2.467  3.051  2.823  1.964  1.019  0.398  0.110
 2777.0   70  1.2728  0.350E-01  1.016  1.699    0.60  1.9897  0.990  1.699  0.786  0.850  1.000  2.549  3.392  3.418  2.911  1.996  1.051  0.407
 2320.2   70  1.3750  0.847E-02  1.016  1.699    0.60  3.7165  0.990  1.699  0.954  0.831  1.000  2.493  3.454  3.744  3.696  3.242  2.551  1.718
 2044.2   70  1.3969  0.106E-01  1.016  1.699    0.60  3.9098  0.990  1.699  0.938  0.822  1.000  2.467  3.459  3.877  3.964  3.839  3.399  2.824
 1778.4   70  1.4077  0.133E-01  1.016  1.699    0.60  3.6172  0.990  1.699  0.906  0.794  1.000  2.383  3.370  3.759  3.985  4.077  3.935  3.829
 1455.2   70  1.4162  0.160E-01  1.016  1.699    0.60  2.5587  0.990  1.699  0.824  0.730  1.000  2.189  2.924  3.053  3.277  3.395  3.542  3.799
 1270.3   70  1.4179  0.173E-01  1.016  1.699    0.60  2.0907  0.990  1.699  0.730  0.649  1.000  1.946  2.546  2.385  2.535  2.545  2.780  3.043
  944.3   70  1.4179  0.173E-01  1.016  1.699    0.60  2.4180  0.990  1.699  0.734  0.819  1.000  2.457  3.696  4.421  5.425  6.131  6.858  7.277
  693.5   70  1.4179  0.173E-01  1.016  1.699    0.60  2.2375  0.990  1.699  0.670  0.874  1.000  2.621  3.909  4.775  5.622  6.187  6.751  7.096
  527.1   70  1.4179  0.173E-01  1.016  1.699    0.60  2.4324  0.990  1.699  0.669  0.903  1.000  2.710  4.154  5.313  6.472  7.543  8.670  9.743
  399.8   70  1.4179  0.173E-01  1.016  1.699    0.60  2.2609  0.990  1.699  0.610  0.918  1.000  2.753  4.294  5.620  6.950  8.171  9.362 10.446
  329.1   70  1.4179  0.173E-01  1.016  1.699    0.60  2.1326  0.990  1.699  0.570  0.927  1.000  2.782  4.364  5.761  7.125  8.424  9.712 10.938
  229.8   70  1.4179  0.173E-01  1.016  1.699    0.60  2.1272  0.990  1.699  0.547  0.946  1.000  2.839  4.557  6.169  7.744  9.281 10.788 12.251
 7082.2   70  1.2553  0.183E+00  1.016  1.699    0.60  0.8845  0.990  1.699  0.244  0.466  1.000  1.398  0.900  0.361  0.083  0.011  0.001  0.000
  300.0   80  1.4200  0.137E-01  1.016  1.826    0.60  2.1392  0.990  1.826  0.587  0.926  1.000  2.778  4.357  5.754  7.141  8.482  9.808 11.071
  400.0   80  1.4200  0.137E-01  1.016  1.826    0.60  2.3006  0.990  1.826  0.645  0.915  1.000  2.745  4.263  5.545  6.834  8.010  9.201 10.315
  440.0   80  1.4200  0.137E-01  1.016  1.826    0.60  2.2090  0.990  1.826  0.645  0.900  1.000  2.699  4.143  5.306  6.502  7.571  8.641  9.618
  500.0   80  1.4200  0.137E-01  1.016  1.826    0.60  2.1677  0.990  1.826  0.655  0.883  1.000  2.649  4.002  5.015  6.087  7.071  8.082  8.969
  550.0   80  1.4200  0.137E-01  1.016  1.826    0.60  2.4447  0.990  1.826  0.702  0.891  1.000  2.674  4.071  5.156  6.297  7.342  8.438  9.492
  600.0   80  1.4200  0.137E-01  1.016  1.826    0.60  2.3494  0.990  1.826  0.703  0.880  1.000  2.641  3.970  4.929  5.950  6.815  7.765  8.671
  675.0   80  1.4200  0.137E-01  1.016  1.826    0.60  2.0760  0.990  1.826  0.676  0.852  1.000  2.555  3.723  4.374  5.044  5.447  5.967  6.350
  800.0   80  1.4200  0.137E-01  1.016  1.826    0.60  2.5077  0.990  1.826  0.745  0.859  1.000  2.577  3.903  4.797  5.782  6.407  7.088  7.511
  870.0   80  1.4200  0.137E-01  1.016  1.826    0.60  2.7352  0.990  1.826  0.771  0.861  1.000  2.582  3.961  4.938  6.106  6.877  7.643  8.154
 1000.0   80  1.4200  0.137E-01  1.016  1.826    0.60  2.4837  0.990  1.826  0.776  0.810  1.000  2.431  3.671  4.408  5.509  6.205  6.916  7.380
 1020.0   80  1.4200  0.137E-01  1.016  1.826    0.60  2.4392  0.990  1.826  0.775  0.804  1.000  2.413  3.631  4.268  5.231  5.871  6.581  6.958
55555.6   80  1.8123  0.377E+00  1.016  1.826    0.60  0.1251  0.990  1.826  0.009  0.010  1.000  0.029  0.500  0.005  0.000  0.000  0.000  0.000
23529.4   80  1.7926  0.394E+00  1.016  1.826    0.60  0.3926  0.990  1.826  0.090  0.053  1.000  0.158  0.504  0.025  0.001  0.000  0.000  0.000
17699.1   80  1.9542  0.666E+00  1.016  1.826    0.60  0.9611  0.990  1.826  0.182  0.098  1.000  0.294  0.513  0.043  0.002  0.000  0.000  0.000
15037.6   80  1.5722  0.269E+00  1.016  1.826    0.60  0.5991  0.990  1.826  0.191  0.120  1.000  0.361  0.523  0.064  0.003  0.000  0.000  0.000
13157.9   80  1.6818  0.227E+00  1.016  1.826    0.60  0.7222  0.990  1.826  0.328  0.170  1.000  0.510  0.542  0.082  0.006  0.000  0.000  0.000
11111.1   80  1.8154  0.557E+00  1.016  1.826    0.60  1.8834  0.990  1.826  0.337  0.265  1.000  0.794  0.590  0.121  0.013  0.001  0.000  0.000
 9708.7   80  1.8968  0.724E+00  1.016  1.826    0.60  2.5666  0.990  1.826  0.388  0.341  1.000  1.023  0.650  0.178  0.027  0.002  0.000  0.000
 8849.6   80  1.5905  0.805E+00  1.016  1.826    0.60  2.4135  0.990  1.826  0.347  0.374  1.000  1.122  0.720  0.275  0.056  0.006  0.000  0.000
 7782.1   80  1.0819  0.427E+00  1.016  1.826    0.60  1.3769  0.990  1.826  0.203  0.434  1.000  1.303  0.876  0.403  0.101  0.014  0.001  0.000
 6968.6   80  1.2648  0.119E+00  1.016  1.826    0.60  0.7661  0.990  1.826  0.324  0.542  1.000  1.626  1.064  0.444  0.117  0.018  0.002  0.000
 6097.6   80  1.4392  0.178E+00  1.016  1.826    0.60  1.6829  0.990  1.826  0.473  0.660  1.000  1.980  1.494  0.680  0.228  0.045  0.006  0.001
 5154.6   80  1.3947  0.131E+00  1.016  1.826    0.60  1.7324  0.990  1.826  0.543  0.705  1.000  2.116  2.012  1.130  0.469  0.126  0.023  0.003
 4618.9   80  1.4292  0.159E+00  1.016  1.826    0.60  2.1837  0.990  1.826  0.549  0.749  1.000  2.248  2.431  1.709  0.835  0.275  0.065  0.011
 4319.7   80  1.4226  0.148E+00  1.016  1.826    0.60  2.2923  0.990  1.826  0.570  0.775  1.000  2.325  2.618  2.038  1.092  0.405  0.111  0.021
 4016.1   80  1.4213  0.176E+00  1.016  1.826    0.60  2.4303  0.990  1.826  0.545  0.799  1.000  2.397  2.823  2.427  1.485  0.657  0.217  0.049
 3418.8   80  1.3373  0.207E+00  1.016  1.826    0.60  2.2847  0.990  1.826  0.482  0.841  1.000  2.522  3.257  3.196  2.502  1.502  0.687  0.229
 3444.7   80  1.3447  0.208E+00  1.016  1.826    0.60  2.3075  0.990  1.826  0.485  0.839  1.000  2.516  3.239  3.165  2.459  1.462  0.660  0.216
 2777.0   80  1.2968  0.202E-01  1.016  1.826    0.60  2.4731  0.990  1.826  0.881  0.851  1.000  2.554  3.441  3.636  3.256  2.520  1.541  0.692
 2320.2   80  1.3763  0.346E-02  1.016  1.826    0.60  3.8650  0.990  1.826  0.981  0.824  1.000  2.472  3.444  3.821  3.839  3.570  2.960  2.230
 2044.2   80  1.3966  0.455E-02  1.016  1.826    0.60  3.9487  0.990  1.826  0.971  0.811  1.000  2.433  3.419  3.822  4.048  3.975  3.759  3.386
 1778.4   80  1.4098  0.796E-02  1.016  1.826    0.60  3.3380  0.990  1.826  0.934  0.778  1.000  2.335  3.231  3.557  3.824  3.915  3.957  3.944
 1455.2   80  1.4183  0.120E-01  1.016  1.826    0.60  2.3308  0.990  1.826  0.829  0.681  1.000  2.043  2.741  2.552  2.709  2.710  2.845  3.129
 1270.3   80  1.4200  0.137E-01  1.016  1.826    0.60  1.8489  0.990  1.826  0.747  0.624  1.000  1.871  2.416  2.090  2.427  2.333  2.591  2.799
  944.3   80  1.4200  0.137E-01  1.016  1.826    0.60  2.6390  0.990  1.826  0.785  0.849  1.000  2.547  3.885  4.760  5.858  6.629  7.415  7.870
  693.5   80  1.4200  0.137E-01  1.016  1.826    0.60  2.0640  0.990  1.826  0.679  0.845  1.000  2.535  3.684  4.347  5.033  5.388  5.784  6.073
  527.1   80  1.4200  0.137E-01  1.016  1.826    0.60  2.3575  0.990  1.826  0.687  0.889  1.000  2.666  4.054  5.129  6.253  7.288  8.358  9.386
  399.8   80  1.4200  0.137E-01  1.016  1.826    0.60  2.3009  0.990  1.826  0.645  0.915  1.000  2.745  4.263  5.545  6.835  8.011  9.203 10.316
  329.1   80  1.4200  0.137E-01  1.016  1.826    0.60  2.2471  0.990  1.826  0.616  0.927  1.000  2.780  4.353  5.734  7.108  8.438  9.771 11.049
  229.8   80  1.4200  0.137E-01  1.016  1.826    0.60  2.1773  0.990  1.826  0.574  0.944  1.000  2.831  4.524  6.098  7.649  9.170 10.678 12.143
 7082.2   80  1.2291  0.131E+00  1.016  1.826    0.60  0.7330  0.990  1.826  0.263  0.519  1.000  1.558  1.019  0.430  0.111  0.017  0.002  0.000
  300.0   90  1.4200  0.137E-01  1.016  2.090    0.60  2.1985  0.990  2.090  0.587  0.938  1.000  2.815  4.468  5.980  7.471  8.920 10.353 11.744
  400.0   90  1.4200  0.137E-01  1.016  2.090    0.60  2.1466  0.990  2.090  0.605  0.917  1.000  2.750  4.263  5.553  6.827  8.035  9.255 10.436
  440.0   90  1.4200  0.137E-01  1.016  2.090    0.60  2.2154  0.990  2.090  0.626  0.914  1.000  2.741  4.247  5.508  6.774  7.938  9.113 10.208
  500.0   90  1.4200  0.137E-01  1.016  2.090    0.60  2.2295  0.990  2.090  0.645  0.902  1.000  2.705  4.160  5.341  6.556  7.653  8.750  9.731
  550.0   90  1.4200  0.137E-01  1.016  2.090    0.60  2.0959  0.990  2.090  0.636  0.879  1.000  2.638  3.982  4.982  6.056  7.023  7.996  8.822
  600.0   90  1.4200  0.137E-01  1.016  2.090    0.60  2.3376  0.990  2.090  0.685  0.889  1.000  2.667  4.054  5.123  6.230  7.251  8.319  9.328
  675.0   90  1.4200  0.137E-01  1.016  2.090    0.60  2.4135  0.990  2.090  0.709  0.888  1.000  2.664  4.026  5.036  6.050  6.975  7.973  8.947
  800.0   90  1.4200  0.137E-01  1.016  2.090    0.60  2.0678  0.990  2.090  0.683  0.852  1.000  2.555  3.713  4.370  5.023  5.396  5.776  6.055
  870.0   90  1.4200  0.137E-01  1.016  2.090    0.60  2.3096  0.990  2.090  0.716  0.850  1.000  2.551  3.798  4.608  5.472  5.979  6.498  6.867
 1000.0   90  1.4200  0.137E-01  1.016  2.090    0.60  2.7259  0.990  2.090  0.773  0.862  1.000  2.585  3.960  4.932  6.097  6.886  7.655  8.149
 1020.0   90  1.4200  0.137E-01  1.016  2.090    0.60  2.7166  0.990  2.090  0.782  0.865  1.000  2.596  3.974  4.929  6.006  6.816  7.598  8.129
55555.6   90  1.8123  0.377E+00  1.016  2.090    0.60  0.1454  0.990  2.090  0.013  0.013  1.000  0.038  0.500  0.006  0.000  0.000  0.000  0.000
23529.4   90  1.7926  0.394E+00  1.016  2.090    0.60  0.4872  0.990  2.090  0.125  0.069  1.000  0.208  0.507  0.033  0.001  0.000  0.000  0.000
17699.1   90  1.9542  0.666E+00  1.016  2.090    0.60  1.2421  0.990  2.090  0.234  0.131  1.000  0.392  0.522  0.056  0.003  0.000  0.000  0.000
15037.6   90  1.5722  0.269E+00  1.016  2.090    0.60  0.7576  0.990  2.090  0.244  0.162  1.000  0.485  0.540  0.085  0.006  0.000  0.000  0.000
13157.9   90  1.6818  0.227E+00  1.016  2.090    0.60  0.9594  0.990  2.090  0.390  0.232  1.000  0.696  0.576  0.110  0.010  0.001  0.000  0.000
11111.1   90  1.8154  0.557E+00  1.016  2.090    0.60  2.2476  0.990  2.090  0.379  0.355  1.000  1.066  0.664  0.176  0.025  0.002  0.000  0.000
 9708.7   90  1.8968  0.724E+00  1.016  2.090    0.60  2.7527  0.990  2.090  0.420  0.426  1.000  1.279  0.763  0.283  0.062  0.007  0.000  0.000
 8849.6   90  1.5905  0.805E+00  1.016  2.090    0.60  2.5286  0.990  2.090  0.373  0.478  1.000  1.433  0.911  0.441  0.125  0.017  0.001  0.000
 7782.1   90  1.0819  0.427E+00  1.016  2.090    0.60  1.4896  0.990  2.090  0.230  0.545  1.000  1.634  1.158  0.591  0.192  0.035  0.004  0.000
 6968.6   90  1.2648  0.119E+00  1.016  2.090    0.60  0.9240  0.990  2.090  0.361  0.651  1.000  1.952  1.436  0.661  0.216  0.044  0.006  0.001
 6097.6   90  1.4392  0.178E+00  1.016  2.090    0.60  1.9518  0.990  2.090  0.509  0.698  1.000  2.094  1.939  1.076  0.440  0.113  0.020  0.002
 5154.6   90  1.3947  0.131E+00  1.016  2.090    0.60  2.0255  0.990  2.090  0.568  0.755  1.000  2.266  2.482  1.774  0.882  0.300  0.074  0.013
 4618.9   90  1.4292  0.159E+00  1.016  2.090    0.60  2.4648  0.990  2.090  0.569  0.796  1.000  2.388  2.793  2.384  1.439  0.622  0.202  0.045
 4319.7   90  1.4226  0.148E+00  1.016  2.090    0.60  2.5523  0.990  2.090  0.588  0.809  1.000  2.427  2.945  2.675  1.807  0.897  0.336  0.086
 4016.1   90  1.4213  0.176E+00  1.016  2.090    0.60  2.6397  0.990  2.090  0.556  0.826  1.000  2.478  3.158  3.057  2.356  1.389  0.611  0.187
 3418.8   90  1.3373  0.207E+00  1.016  2.090    0.60  2.4301  0.990  2.090  0.497  0.864  1.000  2.591  3.518  3.740  3.373  2.541  1.511  0.692
 3444.7   90  1.3447  0.208E+00  1.016  2.090    0.60  2.4529  0.990  2.090  0.500  0.862  1.000  2.585  3.502  3.712  3.334  2.492  1.466  0.662
 2777.0   90  1.2968  0.202E-01  1.016  2.090    0.60  2.8935  0.990  2.090  0.883  0.871  1.000  2.614  3.658  4.059  3.987  3.466  2.691  1.747
 2320.2   90  1.3763  0.346E-02  1.016  2.090    0.60  3.9876  0.990  2.090  0.978  0.826  1.000  2.478  3.503  3.956  4.182  4.098  3.847  3.419
 2044.2   90  1.3966  0.455E-02  1.016  2.090    0.60  3.5728  0.990  2.090  0.963  0.793  1.000  2.379  3.332  3.710  3.978  4.082  4.065  4.015
 1778.4   90  1.4098  0.796E-02  1.016  2.090    0.60  2.5733  0.990  2.090  0.904  0.714  1.000  2.142  2.863  2.923  3.107  3.176  3.292  3.538
 1455.2   90  1.4183  0.120E-01  1.016  2.090    0.60  1.8277  0.990  2.090  0.771  0.617  1.000  1.851  2.376  1.993  2.295  2.164  2.394  2.588
 1270.3   90  1.4200  0.137E-01  1.016  2.090    0.60  2.1698  0.990  2.090  0.754  0.733  1.000  2.199  3.193  3.442  4.110  4.520  5.033  5.305
  944.3   90  1.4200  0.137E-01  1.016  2.090    0.60  2.6014  0.990  2.090  0.758  0.868  1.000  2.603  3.957  4.897  5.968  6.695  7.377  7.829
  693.5   90  1.4200  0.137E-01  1.016  2.090    0.60  2.3313  0.990  2.090  0.700  0.880  1.000  2.639  3.962  4.900  5.884  6.716  7.632  8.469
  527.1   90  1.4200  0.137E-01  1.016  2.090    0.60  2.1330  0.990  2.090  0.632  0.885  1.000  2.655  4.036  5.098  6.231  7.230  8.219  9.080
  399.8   90  1.4200  0.137E-01  1.016  2.090    0.60  2.1474  0.990  2.090  0.605  0.917  1.000  2.751  4.263  5.554  6.830  8.039  9.260 10.442
  329.1   90  1.4200  0.137E-01  1.016  2.090    0.60  2.1254  0.990  2.090  0.581  0.928  1.000  2.784  4.379  5.799  7.209  8.566  9.910 11.186
  229.8   90  1.4200  0.137E-01  1.016  2.090    0.60  2.1524  0.990  2.090  0.562  0.949  1.000  2.846  4.577  6.211  7.818  9.400 10.960 12.483
 7082.2   90  1.2291  0.131E+00  1.016  2.090    0.60  0.8670  0.990  2.090  0.296  0.634  1.000  1.902  1.376  0.639  0.206  0.041  0.005  0.000
  300.0   95  1.4200  0.137E-01  1.016  2.236    0.60  2.1155  0.990  2.236  0.566  0.938  1.000  2.814  4.469  5.985  7.475  8.930 10.374 11.774
  400.0   95  1.4200  0.137E-01  1.016  2.236    0.60  2.2569  0.990  2.236  0.617  0.928  1.000  2.783  4.362  5.751  7.129  8.463  9.797 11.086
  440.0   95  1.4200  0.137E-01  1.016  2.236    0.60  2.1166  0.990  2.236  0.602  0.913  1.000  2.739  4.229  5.483  6.722  7.880  9.055 10.188
  500.0   95  1.4200  0.137E-01  1.016  2.236    0.60  2.3346  0.990  2.236  0.650  0.914  1.000  2.742  4.264  5.542  6.843  8.028  9.219 10.309
  550.0   95  1.4200  0.137E-01  1.016  2.236    0.60  2.1659  0.990  2.236  0.637  0.892  1.000  2.676  4.093  5.202  6.377  7.415  8.468  9.354
  600.0   95  1.4200  0.137E-01  1.016  2.236    0.60  2.1500  0.990  2.236  0.646  0.878  1.000  2.635  3.985  4.990  6.077  7.022  8.009  8.874
  675.0   95  1.4200  0.137E-01  1.016  2.236    0.60  2.4408  0.990  2.236  0.702  0.891  1.000  2.674  4.070  5.154  6.295  7.343  8.436  9.488
  800.0   95  1.4200  0.137E-01  1.016  2.236    0.60  2.1097  0.990  2.236  0.679  0.856  1.000  2.567  3.747  4.479  5.236  5.751  6.353  6.906
  870.0   95  1.4200  0.137E-01  1.016  2.236    0.60  2.0840  0.990  2.236  0.686  0.851  1.000  2.554  3.718  4.371  5.017  5.378  5.799  6.080
 1000.0   95  1.4200  0.137E-01  1.016  2.236    0.60  2.5701  0.990  2.236  0.755  0.866  1.000  2.599  3.948  4.897  5.939  6.626  7.258  7.736
 1020.0   95  1.4200  0.137E-01  1.016  2.236    0.60  2.5959  0.990  2.236  0.767  0.872  1.000  2.616  3.983  4.918  5.953  6.677  7.388  7.846
55555.6   95  1.8123  0.377E+00  1.016  2.236    0.60  0.1571  0.990  2.236  0.016  0.014  1.000  0.043  0.500  0.007  0.000  0.000  0.000  0.000
23529.4   95  1.7926  0.394E+00  1.016  2.236    0.60  0.5465  0.990  2.236  0.146  0.080  1.000  0.239  0.509  0.037  0.001  0.000  0.000  0.000
17699.1   95  1.9542  0.666E+00  1.016  2.236    0.60  1.4133  0.990  2.236  0.262  0.152  1.000  0.455  0.529  0.064  0.004  0.000  0.000  0.000
15037.6   95  1.5722  0.269E+00  1.016  2.236    0.60  0.8528  0.990  2.236  0.272  0.188  1.000  0.565  0.554  0.099  0.008  0.000  0.000  0.000
13157.9   95  1.6818  0.227E+00  1.016  2.236    0.60  1.1033  0.990  2.236  0.418  0.273  1.000  0.818  0.604  0.129  0.014  0.001  0.000  0.000
11111.1   95  1.8154  0.557E+00  1.016  2.236    0.60  2.4050  0.990  2.236  0.397  0.404  1.000  1.211  0.718  0.216  0.037  0.003  0.000  0.000
 9708.7   95  1.8968  0.724E+00  1.016  2.236    0.60  2.8008  0.990  2.236  0.431  0.469  1.000  1.406  0.851  0.367  0.097  0.012  0.001  0.000
 8849.6   95  1.5905  0.805E+00  1.016  2.236    0.60  2.5805  0.990  2.236  0.383  0.528  1.000  1.583  1.055  0.557  0.184  0.029  0.003  0.000
 7782.1   95  1.0819  0.427E+00  1.016  2.236    0.60  1.5452  0.990  2.236  0.244  0.594  1.000  1.783  1.344  0.715  0.261  0.056  0.007  0.001
 6968.6   95  1.2648  0.119E+00  1.016  2.236    0.60  1.0130  0.990  2.236  0.382  0.687  1.000  2.061  1.655  0.808  0.290  0.067  0.010  0.001
 6097.6   95  1.4392  0.178E+00  1.016  2.236    0.60  2.0892  0.990  2.236  0.522  0.721  1.000  2.163  2.187  1.363  0.608  0.177  0.036  0.005
 5154.6   95  1.3947  0.131E+00  1.016  2.236    0.60  2.1825  0.990  2.236  0.579  0.783  1.000  2.348  2.674  2.128  1.171  0.450  0.129  0.026
 4618.9   95  1.4292  0.159E+00  1.016  2.236    0.60  2.5780  0.990  2.236  0.576  0.809  1.000  2.428  2.957  2.697  1.836  0.923  0.349  0.090
 4319.7   95  1.4226  0.148E+00  1.016  2.236    0.60  2.6708  0.990  2.236  0.592  0.821  1.000  2.464  3.116  2.984  2.263  1.305  0.561  0.166
 4016.1   95  1.4213  0.176E+00  1.016  2.236    0.60  2.7306  0.990  2.236  0.560  0.838  1.000  2.515  3.298  3.340  2.806  1.880  0.946  0.341
 3418.8   95  1.3373  0.207E+00  1.016  2.236    0.60  2.4867  0.990  2.236  0.502  0.874  1.000  2.623  3.629  3.991  3.771  3.100  2.096  1.123
 3444.7   95  1.3447  0.208E+00  1.016  2.236    0.60  2.5084  0.990  2.236  0.504  0.872  1.000  2.617  3.614  3.964  3.733  3.051  2.043  1.081
 2777.0   95  1.2968  0.202E-01  1.016  2.236    0.60  3.0896  0.990  2.236  0.885  0.873  1.000  2.619  3.710  4.206  4.256  3.897  3.224  2.378
 2320.2   95  1.3763  0.346E-02  1.016  2.236    0.60  3.8187  0.990  2.236  0.976  0.809  1.000  2.428  3.465  3.902  4.128  4.165  3.971  3.766
 2044.2   95  1.3966  0.455E-02  1.016  2.236    0.60  3.2274  0.990  2.236  0.955  0.748  1.000  2.244  3.170  3.385  3.616  3.678  3.751  3.856
 1778.4   95  1.4098  0.796E-02  1.016  2.236    0.60  2.4128  0.990  2.236  0.883  0.682  1.000  2.046  2.776  2.589  2.717  2.697  2.808  3.071
 1455.2   95  1.4183  0.120E-01  1.016  2.236    0.60  1.9215  0.990  2.236  0.767  0.677  1.000  2.032  2.734  2.604  2.965  3.122  3.329  3.518
 1270.3   95  1.4200  0.137E-01  1.016  2.236    0.60  2.4306  0.990  2.236  0.768  0.783  1.000  2.349  3.540  4.136  5.051  5.637  6.384  6.749
  944.3   95  1.4200  0.137E-01  1.016  2.236    0.60  2.3416  0.990  2.236  0.729  0.860  1.000  2.579  3.859  4.696  5.593  6.123  6.620  6.987
  693.5   95  1.4200  0.137E-01  1.016  2.236    0.60  2.4641  0.990  2.236  0.711  0.892  1.000  2.675  4.074  5.137  6.231  7.227  8.313  9.344
  527.1   95  1.4200  0.137E-01  1.016  2.236    0.60  2.2808  0.990  2.236  0.649  0.905  1.000  2.715  4.195  5.405  6.660  7.779  8.902  9.909
  399.8   95  1.4200  0.137E-01  1.016  2.236    0.60  2.2570  0.990  2.236  0.617  0.928  1.000  2.783  4.362  5.752  7.129  8.464  9.798 11.088
  329.1   95  1.4200  0.137E-01  1.016  2.236    0.60  2.2072  0.990  2.236  0.591  0.937  1.000  2.812  4.460  5.961  7.442  8.881 10.304 11.682
  229.8   95  1.4200  0.137E-01  1.016  2.236    0.60  2.1096  0.990  2.236  0.550  0.949  1.000  2.847  4.589  6.237  7.859  9.456 11.033 12.575
 7082.2   95  1.2291  0.131E+00  1.016  2.236    0.60  0.9420  0.990  2.236  0.315  0.677  1.000  2.030  1.593  0.780  0.277  0.062  0.009  0.001
  300.0   99  1.4200  0.137E-01  1.016  2.236    0.60  2.1155  0.990  2.236  0.566  0.938  1.000  2.814  4.469  5.985  7.475  8.930 10.374 11.774
  400.0   99  1.4200  0.137E-01  1.016  2.236    0.60  2.2569  0.990  2.236  0.617  0.928  1.000  2.783  4.362  5.751  7.129  8.463  9.797 11.086
  440.0   99  1.4200  0.137E-01  1.016  2.236    0.60  2.1166  0.990  2.236  0.602  0.913  1.000  2.739  4.229  5.483  6.722  7.880  9.055 10.188
  500.0   99  1.4200  0.137E-01  1.016  2.236    0.60  2.3346  0.990  2.236  0.650  0.914  1.000  2.742  4.264  5.542  6.843  8.028  9.219 10.309
  550.0   99  1.4200  0.137E-01  1.016  2.236    0.60  2.1659  0.990  2.236  0.637  0.892  1.000  2.676  4.093  5.202  6.377  7.415  8.468  9.354
  600.0   99  1.4200  0.137E-01  1.016  2.236    0.60  2.1500  0.990  2.236  0.646  0.878  1.000  2.635  3.985  4.990  6.077  7.022  8.009  8.874
  675.0   99  1.4200  0.137E-01  1.016  2.236    0.60  2.4408  0.990  2.236  0.702  0.891  1.000  2.674  4.070  5.154  6.295  7.343  8.436  9.488
  800.0   99  1.4200  0.137E-01  1.016  2.236    0.60  2.1097  0.990  2.236  0.679  0.856  1.000  2.567  3.747  4.479  5.236  5.751  6.353  6.906
  870.0   99  1.4200  0.137E-01  1.016  2.236    0.60  2.0840  0.990  2.236  0.686  0.851  1.000  2.554  3.718  4.371  5.017  5.378  5.799  6.080
 1000.0   99  1.4200  0.137E-01  1.016  2.236    0.60  2.5701  0.990  2.236  0.755  0.866  1.000  2.599  3.948  4.897  5.939  6.626  7.258  7.736
 1020.0   99  1.4200  0.137E-01  1.016  2.236    0.60  2.5959  0.990  2.236  0.767  0.872  1.000  2.616  3.983  4.918  5.953  6.677  7.388  7.846
55555.6   99  1.8123  0.377E+00  1.016  2.236    0.60  0.1571  0.990  2.236  0.016  0.014  1.000  0.043  0.500  0.007  0.000  0.000  0.000  0.000
23529.4   99  1.7926  0.394E+00  1.016  2.236    0.60  0.5465  0.990  2.236  0.146  0.080  1.000  0.239  0.509  0.037  0.001  0.000  0.000  0.000
17699.1   99  1.9542  0.666E+00  1.016  2.236    0.60  1.4133  0.990  2.236  0.262  0.152  1.000  0.455  0.529  0.064  0.004  0.000  0.000  0.000
15037.6   99  1.5722  0.269E+00  1.016  2.236    0.60  0.8528  0.990  2.236  0.272  0.188  1.000  0.565  0.554  0.099  0.008  0.000  0.000  0.000
13157.9   99  1.6818  0.227E+00  1.016  2.236    0.60  1.1033  0.990  2.236  0.418  0.273  1.000  0.818  0.604  0.129  0.014  0.001  0.000  0.000
11111.1   99  1.8154  0.557E+00  1.016  2.236    0.60  2.4050  0.990  2.236  0.397  0.404  1.000  1.211  0.718  0.216  0.037  0.003  0.000  0.000
 9708.7   99  1.8968  0.724E+00  1.016  2.236    0.60  2.8008  0.990  2.236  0.431  0.469  1.000  1.406  0.851  0.367  0.097  0.012  0.001  0.000
 8849.6   99  1.5905  0.805E+00  1.016  2.236    0.60  2.5805  0.990  2.236  0.383  0.528  1.000  1.583  1.055  0.557  0.184  0.029  0.003  0.000
 7782.1   99  1.0819  0.427E+00  1.016  2.236    0.60  1.5452  0.990  2.236  0.244  0.594  1.000  1.783  1.344  0.715  0.261  0.056  0.007  0.001
 6968.6   99  1.2648  0.119E+00  1.016  2.236    0.60  1.0130  0.990  2.236  0.382  0.687  1.000  2.061  1.655  0.808  0.290  0.067  0.010  0.001
 6097.6   99  1.4392  0.178E+00  1.016  2.236    0.60  2.0892  0.990  2.236  0.522  0.721  1.000  2.163  2.187  1.363  0.608  0.177  0.036  0.005
 5154.6   99  1.3947  0.131E+00  1.016  2.236    0.60  2.1825  0.990  2.236  0.579  0.783  1.000  2.348  2.674  2.128  1.171  0.450  0.129  0.026
 4618.9   99  1.4292  0.159E+00  1.016  2.236    0.60  2.5780  0.990  2.236  0.576  0.809  1.000  2.428  2.957  2.697  1.836  0.923  0.349  0.090
 4319.7   99  1.4226  0.148E+00  1.016  2.236    0.60  2.6708  0.990  2.236  0.592  0.821  1.000  2.464  3.116  2.984  2.263  1.305  0.561  0.166
 4016.1   99  1.4213  0.176E+00  1.016  2.236    0.60  2.7306  0.990  2.236  0.560  0.838  1.000  2.515  3.298  3.340  2.806  1.880  0.946  0.341
 3418.8   99  1.3373  0.207E+00  1.016  2.236    0.60  2.4867  0.990  2.236  0.502  0.874  1.000  2.623  3.629  3.991  3.771  3.100  2.096  1.123
 3444.7   99  1.3447  0.208E+00  1.016  2.236    0.60  2.5084  0.990  2.236  0.504  0.872  1.000  2.617  3.614  3.964  3.733  3.051  2.043  1.081
 2777.0   99  1.2968  0.202E-01  1.016  2.236    0.60  3.0896  0.990  2.236  0.885  0.873  1.000  2.619  3.710  4.206  4.256  3.897  3.224  2.378
 2320.2   99  1.3763  0.346E-02  1.016  2.236    0.60  3.8187  0.990  2.236  0.976  0.809  1.000  2.428  3.465  3.902  4.128  4.165  3.971  3.766
 2044.2   99  1.3966  0.455E-02  1.016  2.236    0.60  3.2274  0.990  2.236  0.955  0.748  1.000  2.244  3.170  3.385  3.616  3.678  3.751  3.856
 1778.4   99  1.4098  0.796E-02  1.016  2.236    0.60  2.4128  0.990  2.236  0.883  0.682  1.000  2.046  2.776  2.589  2.717  2.697  2.808  3.071
 1455.2   99  1.4183  0.120E-01  1.016  2.236    0.60  1.9215  0.990  2.236  0.767  0.677  1.000  2.032  2.734  2.604  2.965  3.122  3.329  3.518
 1270.3   99  1.4200  0.137E-01  1.016  2.236    0.60  2.4306  0.990  2.236  0.768  0.783  1.000  2.349  3.540  4.136  5.051  5.637  6.384  6.749
  944.3   99  1.4200  0.137E-01  1.016  2.236    0.60  2.3416  0.990  2.236  0.729  0.860  1.000  2.579  3.859  4.696  5.593  6.123  6.620  6.987
  693.5   99  1.4200  0.137E-01  1.016  2.236    0.60  2.4641  0.990  2.236  0.711  0.892  1.000  2.675  4.074  5.137  6.231  7.227  8.313  9.344
  527.1   99  1.4200  0.137E-01  1.016  2.236    0.60  2.2808  0.990  2.236  0.649  0.905  1.000  2.715  4.195  5.405  6.660  7.779  8.902  9.909
  399.8   99  1.4200  0.137E-01  1.016  2.236    0.60  2.2570  0.990  2.236  0.617  0.928  1.000  2.783  4.362  5.752  7.129  8.464  9.798 11.088
  329.1   99  1.4200  0.137E-01  1.016  2.236    0.60  2.2072  0.990  2.236  0.591  0.937  1.000  2.812  4.460  5.961  7.442  8.881 10.304 11.682
  229.8   99  1.4200  0.137E-01  1.016  2.236    0.60  2.1096  0.990  2.236  0.550  0.949  1.000  2.847  4.589  6.237  7.859  9.456 11.033 12.575
 7082.2   99  1.2291  0.131E+00  1.016  2.236    0.60  0.9420  0.990  2.236  0.315  0.677  1.000  2.030  1.593  0.780  0.277  0.062  0.009  0.001
