 h2so4 RRTMG LUT interpolated from GADS (DAR 09/2013)
 V0.1 - contains Fast-J wavelengths but is the same as the original jv_spec.dat values
  w(nm)   RH       N         iK  RgDry  RgWet      Sg       Q  Alpha  r-eff ss-alb  g-sym  pi(0)  pi(1)  pi(2)  pi(3)  pi(4)  pi(5)  pi(6)  pi(7)
  300.0    0  1.3326  0.000E+00  0.640  0.640    0.60  2.1783  0.990  0.640  1.000  0.741  1.000  2.224  3.311  3.548  4.011  4.342  4.821  5.147
  400.0    0  1.3326  0.000E+00  0.640  0.640    0.60  2.1066  0.990  0.640  1.000  0.707  1.000  2.120  2.877  2.723  2.603  2.470  2.347  2.422
  440.0    0  1.3326  0.000E+00  0.640  0.640    0.60  2.6392  0.990  0.640  1.000  0.759  1.000  2.276  3.185  3.343  3.426  3.457  3.462  3.576
  500.0    0  1.3326  0.000E+00  0.640  0.640    0.60  3.2913  0.990  0.640  1.000  0.798  1.000  2.395  3.436  3.862  4.116  4.248  4.321  4.377
  550.0    0  1.3326  0.000E+00  0.640  0.640    0.60  3.7337  0.990  0.640  1.000  0.826  1.000  2.479  3.604  4.125  4.467  4.622  4.632  4.651
  600.0    0  1.3326  0.000E+00  0.640  0.640    0.60  3.8994  0.990  0.640  1.000  0.846  1.000  2.537  3.653  4.256  4.590  4.705  4.622  4.426
  675.0    0  1.3326  0.000E+00  0.640  0.640    0.60  3.9038  0.990  0.640  1.000  0.847  1.000  2.541  3.646  4.199  4.457  4.394  4.123  3.682
  800.0    0  1.3326  0.000E+00  0.640  0.640    0.60  3.6231  0.990  0.640  1.000  0.844  1.000  2.532  3.561  3.981  4.008  3.688  3.047  2.276
  870.0    0  1.3326  0.000E+00  0.640  0.640    0.60  3.3608  0.990  0.640  1.000  0.845  1.000  2.534  3.520  3.826  3.721  3.189  2.440  1.557
 1000.0    0  1.3326  0.000E+00  0.640  0.640    0.60  2.8730  0.990  0.640  1.000  0.827  1.000  2.482  3.307  3.431  3.026  2.297  1.347  0.545
 1020.0    0  1.3326  0.000E+00  0.640  0.640    0.60  2.7944  0.990  0.640  1.000  0.824  1.000  2.473  3.288  3.363  2.935  2.173  1.230  0.473
55555.6    0  1.1684  0.258E+00  0.640  0.640    0.60  0.0467  0.990  0.640  0.000  0.001  1.000  0.003  0.500  0.001  0.000  0.000  0.000  0.000
23529.4    0  1.1684  0.258E+00  0.640  0.640    0.60  0.1107  0.990  0.640  0.001  0.005  1.000  0.015  0.500  0.003  0.000  0.000  0.000  0.000
17699.1    0  1.1684  0.258E+00  0.640  0.640    0.60  0.1479  0.990  0.640  0.002  0.009  1.000  0.026  0.500  0.006  0.000  0.000  0.000  0.000
15037.6    0  1.1684  0.258E+00  0.640  0.640    0.60  0.1746  0.990  0.640  0.003  0.012  1.000  0.036  0.500  0.008  0.000  0.000  0.000  0.000
13157.9    0  1.1684  0.258E+00  0.640  0.640    0.60  0.2003  0.990  0.640  0.005  0.016  1.000  0.047  0.500  0.011  0.000  0.000  0.000  0.000
11111.1    0  1.1796  0.164E+00  0.640  0.640    0.60  0.1502  0.990  0.640  0.007  0.022  1.000  0.067  0.501  0.015  0.000  0.000  0.000  0.000
 9708.7    0  1.3159  0.103E+00  0.640  0.640    0.60  0.1051  0.990  0.640  0.031  0.031  1.000  0.093  0.502  0.020  0.000  0.000  0.000  0.000
 8849.6    0  1.2787  0.149E+00  0.640  0.640    0.60  0.1697  0.990  0.640  0.025  0.037  1.000  0.111  0.502  0.024  0.000  0.000  0.000  0.000
 7782.1    0  1.2991  0.655E-01  0.640  0.640    0.60  0.0903  0.990  0.640  0.074  0.048  1.000  0.144  0.504  0.031  0.001  0.000  0.000  0.000
 6968.6    0  1.3311  0.555E-01  0.640  0.640    0.60  0.0918  0.990  0.640  0.133  0.061  1.000  0.182  0.507  0.038  0.001  0.000  0.000  0.000
 6097.6    0  1.3533  0.119E+00  0.640  0.640    0.60  0.2218  0.990  0.640  0.112  0.081  1.000  0.242  0.511  0.050  0.002  0.000  0.000  0.000
 5154.6    0  1.3366  0.293E-01  0.640  0.640    0.60  0.0999  0.990  0.640  0.394  0.112  1.000  0.335  0.522  0.069  0.004  0.000  0.000  0.000
 4618.9    0  1.3577  0.343E-01  0.640  0.640    0.60  0.1478  0.990  0.640  0.451  0.141  1.000  0.423  0.535  0.086  0.006  0.000  0.000  0.000
 4319.7    0  1.3621  0.267E-01  0.640  0.640    0.60  0.1558  0.990  0.640  0.558  0.162  1.000  0.487  0.546  0.099  0.008  0.000  0.000  0.000
 4016.1    0  1.3799  0.213E-01  0.640  0.640    0.60  0.1843  0.990  0.640  0.671  0.190  1.000  0.571  0.562  0.115  0.011  0.001  0.000  0.000
 3418.8    0  1.4670  0.487E-01  0.640  0.640    0.60  0.4812  0.990  0.640  0.646  0.287  1.000  0.861  0.634  0.163  0.021  0.002  0.000  0.000
 3444.7    0  1.4602  0.438E-01  0.640  0.640    0.60  0.4482  0.990  0.640  0.660  0.280  1.000  0.841  0.629  0.160  0.020  0.001  0.000  0.000
 2777.0    0  1.1248  0.530E-01  0.640  0.640    0.60  0.2493  0.990  0.640  0.175  0.382  1.000  1.147  0.781  0.303  0.062  0.007  0.001  0.000
 2320.2    0  1.2971  0.000E+00  0.640  0.640    0.60  0.3777  0.990  0.640  1.000  0.574  1.000  1.723  1.147  0.461  0.124  0.020  0.002  0.000
 2044.2    0  1.3176  0.000E+00  0.640  0.640    0.60  0.6233  0.990  0.640  1.000  0.665  1.000  1.994  1.514  0.649  0.209  0.043  0.006  0.001
 1778.4    0  1.3291  0.000E+00  0.640  0.640    0.60  0.9871  0.990  0.640  1.000  0.684  1.000  2.053  1.902  0.957  0.374  0.098  0.018  0.002
 1455.2    0  1.3326  0.000E+00  0.640  0.640    0.60  1.4879  0.990  0.640  1.000  0.748  1.000  2.245  2.529  1.893  1.000  0.351  0.094  0.018
 1270.3    0  1.3326  0.000E+00  0.640  0.640    0.60  1.9808  0.990  0.640  1.000  0.794  1.000  2.381  2.846  2.518  1.652  0.732  0.261  0.067
  944.3    0  1.3326  0.000E+00  0.640  0.640    0.60  3.0556  0.990  0.640  1.000  0.836  1.000  2.507  3.381  3.608  3.286  2.628  1.716  0.834
  693.5    0  1.3326  0.000E+00  0.640  0.640    0.60  3.9407  0.990  0.640  1.000  0.852  1.000  2.556  3.657  4.207  4.446  4.348  4.040  3.525
  527.1    0  1.3326  0.000E+00  0.640  0.640    0.60  3.4903  0.990  0.640  1.000  0.822  1.000  2.467  3.542  4.062  4.403  4.576  4.616  4.681
  399.8    0  1.3326  0.000E+00  0.640  0.640    0.60  2.1011  0.990  0.640  1.000  0.707  1.000  2.120  2.874  2.718  2.598  2.463  2.339  2.414
  329.1    0  1.3326  0.000E+00  0.640  0.640    0.60  1.8485  0.990  0.640  1.000  0.627  1.000  1.882  2.677  2.410  2.601  2.507  2.679  2.930
  229.8    0  1.3326  0.000E+00  0.640  0.640    0.60  2.7339  0.990  0.640  1.000  0.814  1.000  2.441  3.796  4.491  5.390  6.027  6.698  7.215
 7082.2    0  1.3270  0.562E-01  0.640  0.640    0.60  0.0904  0.990  0.640  0.124  0.059  1.000  0.176  0.506  0.037  0.001  0.000  0.000  0.000
  300.0   50  1.3797  0.114E-01  0.640  0.959    0.60  2.1945  0.990  0.959  0.708  0.878  1.000  2.634  3.928  4.791  5.612  6.279  6.964  7.627
  400.0   50  1.3797  0.114E-01  0.640  0.959    0.60  2.6447  0.990  0.959  0.780  0.867  1.000  2.600  4.008  4.968  6.106  6.927  7.726  8.286
  440.0   50  1.3797  0.114E-01  0.640  0.959    0.60  2.7289  0.990  0.959  0.798  0.846  1.000  2.538  3.923  4.862  5.986  6.812  7.693  8.361
  500.0   50  1.3797  0.114E-01  0.640  0.959    0.60  2.3701  0.990  0.959  0.783  0.779  1.000  2.338  3.505  4.080  4.910  5.515  6.224  6.773
  550.0   50  1.3797  0.114E-01  0.640  0.959    0.60  1.9567  0.990  0.959  0.761  0.698  1.000  2.094  2.915  3.005  3.552  3.816  4.195  4.579
  600.0   50  1.3797  0.114E-01  0.640  0.959    0.60  1.8243  0.990  0.959  0.766  0.662  1.000  1.985  2.578  2.340  2.536  2.502  2.656  2.854
  675.0   50  1.3797  0.114E-01  0.640  0.959    0.60  2.1687  0.990  0.959  0.815  0.705  1.000  2.115  2.810  2.682  2.730  2.721  2.792  2.977
  800.0   50  1.3797  0.114E-01  0.640  0.959    0.60  2.8498  0.990  0.959  0.882  0.771  1.000  2.312  3.186  3.488  3.737  3.872  3.984  4.151
  870.0   50  1.3797  0.114E-01  0.640  0.959    0.60  3.3100  0.990  0.959  0.901  0.791  1.000  2.373  3.367  3.750  4.033  4.148  4.215  4.259
 1000.0   50  1.3797  0.114E-01  0.640  0.959    0.60  3.7187  0.990  0.959  0.924  0.818  1.000  2.455  3.495  3.965  4.208  4.256  4.075  3.857
 1020.0   50  1.3797  0.114E-01  0.640  0.959    0.60  3.7297  0.990  0.959  0.928  0.821  1.000  2.462  3.491  3.962  4.206  4.207  4.010  3.723
55555.6   50  1.7343  0.386E+00  0.640  0.959    0.60  0.0694  0.990  0.959  0.001  0.003  1.000  0.008  0.500  0.001  0.000  0.000  0.000 -0.000
23529.4   50  1.7349  0.395E+00  0.640  0.959    0.60  0.1766  0.990  0.959  0.014  0.014  1.000  0.042  0.500  0.007  0.000  0.000  0.000  0.000
17699.1   50  1.7588  0.446E+00  0.640  0.959    0.60  0.2737  0.990  0.959  0.031  0.025  1.000  0.075  0.501  0.013  0.000  0.000  0.000  0.000
15037.6   50  1.5027  0.362E+00  0.640  0.959    0.60  0.3186  0.990  0.959  0.029  0.031  1.000  0.093  0.502  0.018  0.000  0.000  0.000  0.000
13157.9   50  1.5337  0.292E+00  0.640  0.959    0.60  0.3018  0.990  0.959  0.049  0.041  1.000  0.124  0.503  0.023  0.000  0.000  0.000  0.000
11111.1   50  1.5882  0.344E+00  0.640  0.959    0.60  0.4357  0.990  0.959  0.082  0.060  1.000  0.179  0.506  0.032  0.001  0.000  0.000  0.000
 9708.7   50  1.6413  0.508E+00  0.640  0.959    0.60  0.7492  0.990  0.959  0.113  0.079  1.000  0.237  0.510  0.042  0.001  0.000  0.000  0.000
 8849.6   50  1.4307  0.516E+00  0.640  0.959    0.60  0.8940  0.990  0.959  0.097  0.087  1.000  0.262  0.513  0.053  0.002  0.000  0.000  0.000
 7782.1   50  1.2466  0.243E+00  0.640  0.959    0.60  0.5123  0.990  0.959  0.075  0.109  1.000  0.327  0.521  0.072  0.004  0.000  0.000  0.000
 6968.6   50  1.3269  0.172E+00  0.640  0.959    0.60  0.4482  0.990  0.959  0.145  0.141  1.000  0.423  0.535  0.088  0.006  0.000  0.000  0.000
 6097.6   50  1.4180  0.218E+00  0.640  0.959    0.60  0.7072  0.990  0.959  0.227  0.198  1.000  0.593  0.564  0.117  0.011  0.001  0.000  0.000
 5154.6   50  1.3078  0.147E+00  0.640  0.959    0.60  0.5968  0.990  0.959  0.243  0.271  1.000  0.814  0.627  0.177  0.024  0.002  0.000  0.000
 4618.9   50  1.3434  0.122E+00  0.640  0.959    0.60  0.6622  0.990  0.959  0.345  0.351  1.000  1.054  0.711  0.228  0.038  0.004  0.000  0.000
 4319.7   50  1.3490  0.116E+00  0.640  0.959    0.60  0.7249  0.990  0.959  0.382  0.408  1.000  1.225  0.787  0.272  0.052  0.006  0.000  0.000
 4016.1   50  1.3559  0.107E+00  0.640  0.959    0.60  0.7952  0.990  0.959  0.429  0.477  1.000  1.431  0.899  0.331  0.072  0.009  0.001  0.000
 3418.8   50  1.3709  0.124E+00  0.640  0.959    0.60  1.1520  0.990  0.959  0.460  0.624  1.000  1.872  1.279  0.535  0.156  0.027  0.003  0.000
 3444.7   50  1.3700  0.120E+00  0.640  0.959    0.60  1.1226  0.990  0.959  0.463  0.618  1.000  1.855  1.257  0.521  0.150  0.026  0.003  0.000
 2777.0   50  1.1943  0.474E-01  0.640  0.959    0.60  0.5548  0.990  0.959  0.466  0.709  1.000  2.127  1.821  0.933  0.356  0.092  0.016  0.002
 2320.2   50  1.3325  0.980E-03  0.640  0.959    0.60  1.3228  0.990  0.959  0.993  0.718  1.000  2.153  2.332  1.543  0.742  0.240  0.057  0.010
 2044.2   50  1.3546  0.233E-02  0.640  0.959    0.60  1.9443  0.990  0.959  0.985  0.777  1.000  2.330  2.693  2.256  1.331  0.512  0.157  0.035
 1778.4   50  1.3679  0.541E-02  0.640  0.959    0.60  2.5641  0.990  0.959  0.971  0.792  1.000  2.376  2.988  2.741  2.046  1.118  0.489  0.142
 1455.2   50  1.3775  0.919E-02  0.640  0.959    0.60  3.3790  0.990  0.959  0.954  0.823  1.000  2.470  3.297  3.495  3.160  2.511  1.597  0.752
 1270.3   50  1.3797  0.114E-01  0.640  0.959    0.60  3.7864  0.990  0.959  0.941  0.830  1.000  2.491  3.458  3.796  3.801  3.440  2.792  2.000
  944.3   50  1.3797  0.114E-01  0.640  0.959    0.60  3.6832  0.990  0.959  0.917  0.823  1.000  2.468  3.501  3.987  4.280  4.412  4.343  4.238
  693.5   50  1.3797  0.114E-01  0.640  0.959    0.60  2.3072  0.990  0.959  0.822  0.697  1.000  2.092  2.824  2.773  2.817  2.835  2.954  3.160
  527.1   50  1.3797  0.114E-01  0.640  0.959    0.60  2.1296  0.990  0.959  0.776  0.753  1.000  2.258  3.274  3.556  4.159  4.573  5.129  5.432
  399.8   50  1.3797  0.114E-01  0.640  0.959    0.60  2.6462  0.990  0.959  0.779  0.867  1.000  2.600  4.008  4.968  6.106  6.927  7.723  8.287
  329.1   50  1.3797  0.114E-01  0.640  0.959    0.60  2.0562  0.990  0.959  0.695  0.856  1.000  2.569  3.780  4.459  5.151  5.561  6.005  6.291
  229.8   50  1.3797  0.114E-01  0.640  0.959    0.60  2.0932  0.990  0.959  0.655  0.883  1.000  2.649  4.005  4.992  6.026  6.986  7.961  8.844
 7082.2   50  1.3166  0.180E+00  0.640  0.959    0.60  0.4509  0.990  0.959  0.132  0.136  1.000  0.408  0.532  0.086  0.006  0.000  0.000  0.000
  300.0   70  1.4179  0.173E-01  0.640  1.070    0.60  2.2660  0.990  1.070  0.631  0.899  1.000  2.698  4.137  5.302  6.508  7.627  8.754  9.771
  400.0   70  1.4179  0.173E-01  0.640  1.070    0.60  2.0873  0.990  1.070  0.635  0.863  1.000  2.590  3.812  4.601  5.377  5.865  6.419  6.852
  440.0   70  1.4179  0.173E-01  0.640  1.070    0.60  2.2607  0.990  1.070  0.674  0.873  1.000  2.620  3.914  4.801  5.660  6.240  6.813  7.201
  500.0   70  1.4179  0.173E-01  0.640  1.070    0.60  2.6779  0.990  1.070  0.732  0.870  1.000  2.611  4.027  5.079  6.230  7.032  7.853  8.418
  550.0   70  1.4179  0.173E-01  0.640  1.070    0.60  2.6182  0.990  1.070  0.745  0.858  1.000  2.573  3.935  4.890  6.044  6.877  7.693  8.192
  600.0   70  1.4179  0.173E-01  0.640  1.070    0.60  2.4236  0.990  1.070  0.731  0.811  1.000  2.432  3.660  4.355  5.320  6.003  6.750  7.149
  675.0   70  1.4179  0.173E-01  0.640  1.070    0.60  2.0370  0.990  1.070  0.695  0.698  1.000  2.093  2.936  3.111  3.805  4.055  4.569  4.845
  800.0   70  1.4179  0.173E-01  0.640  1.070    0.60  2.0916  0.990  1.070  0.729  0.649  1.000  1.947  2.547  2.387  2.536  2.546  2.781  3.043
  870.0   70  1.4179  0.173E-01  0.640  1.070    0.60  2.4569  0.990  1.070  0.779  0.701  1.000  2.103  2.856  2.832  3.003  3.070  3.281  3.502
 1000.0   70  1.4179  0.173E-01  0.640  1.070    0.60  2.9989  0.990  1.070  0.845  0.753  1.000  2.260  3.138  3.389  3.654  3.752  3.889  3.998
 1020.0   70  1.4179  0.173E-01  0.640  1.070    0.60  3.0450  0.990  1.070  0.855  0.766  1.000  2.298  3.166  3.466  3.744  3.835  3.960  4.003
55555.6   70  1.8355  0.478E+00  0.640  1.070    0.60  0.0878  0.990  1.070  0.002  0.003  1.000  0.010  0.500  0.002  0.000  0.000  0.000  0.000
23529.4   70  1.8130  0.494E+00  0.640  1.070    0.60  0.2346  0.990  1.070  0.020  0.018  1.000  0.054  0.500  0.009  0.000  0.000  0.000  0.000
17699.1   70  1.9871  0.642E+00  0.640  1.070    0.60  0.3823  0.990  1.070  0.053  0.034  1.000  0.102  0.502  0.015  0.000  0.000  0.000  0.000
15037.6   70  1.5717  0.318E+00  0.640  1.070    0.60  0.3119  0.990  1.070  0.049  0.040  1.000  0.120  0.503  0.022  0.000  0.000  0.000  0.000
13157.9   70  1.6893  0.278E+00  0.640  1.070    0.60  0.3180  0.990  1.070  0.100  0.056  1.000  0.167  0.505  0.028  0.001  0.000  0.000  0.000
11111.1   70  1.7564  0.559E+00  0.640  1.070    0.60  0.7645  0.990  1.070  0.126  0.078  1.000  0.235  0.509  0.039  0.001  0.000  0.000  0.000
 9708.7   70  1.8590  0.755E+00  0.640  1.070    0.60  1.2138  0.990  1.070  0.185  0.105  1.000  0.314  0.515  0.049  0.002  0.000  0.000  0.000
 8849.6   70  1.6034  0.777E+00  0.640  1.070    0.60  1.4670  0.990  1.070  0.173  0.113  1.000  0.339  0.520  0.063  0.003  0.000  0.000  0.000
 7782.1   70  1.1347  0.407E+00  0.640  1.070    0.60  0.9100  0.990  1.070  0.089  0.134  1.000  0.403  0.533  0.097  0.007  0.000  0.000  0.000
 6968.6   70  1.2809  0.172E+00  0.640  1.070    0.60  0.5029  0.990  1.070  0.148  0.176  1.000  0.528  0.554  0.114  0.010  0.001  0.000  0.000
 6097.6   70  1.4549  0.217E+00  0.640  1.070    0.60  0.8700  0.990  1.070  0.292  0.259  1.000  0.777  0.607  0.150  0.018  0.001  0.000  0.000
 5154.6   70  1.3515  0.151E+00  0.640  1.070    0.60  0.7649  0.990  1.070  0.317  0.356  1.000  1.068  0.715  0.231  0.039  0.004  0.000  0.000
 4618.9   70  1.4025  0.150E+00  0.640  1.070    0.60  0.9975  0.990  1.070  0.399  0.466  1.000  1.399  0.867  0.309  0.064  0.008  0.001  0.000
 4319.7   70  1.4035  0.143E+00  0.640  1.070    0.60  1.0867  0.990  1.070  0.428  0.530  1.000  1.589  0.991  0.373  0.088  0.012  0.001  0.000
 4016.1   70  1.4100  0.161E+00  0.640  1.070    0.60  1.2979  0.990  1.070  0.431  0.595  1.000  1.784  1.165  0.469  0.128  0.020  0.002  0.000
 3418.8   70  1.3584  0.195E+00  0.640  1.070    0.60  1.5253  0.990  1.070  0.400  0.679  1.000  2.037  1.638  0.803  0.289  0.064  0.009  0.001
 3444.7   70  1.3646  0.194E+00  0.640  1.070    0.60  1.5310  0.990  1.070  0.404  0.676  1.000  2.029  1.613  0.783  0.279  0.061  0.009  0.001
 2777.0   70  1.2728  0.350E-01  0.640  1.070    0.60  0.9560  0.990  1.070  0.715  0.721  1.000  2.163  2.179  1.269  0.548  0.166  0.035  0.005
 2320.2   70  1.3750  0.847E-02  0.640  1.070    0.60  2.0911  0.990  1.070  0.951  0.772  1.000  2.316  2.657  2.204  1.276  0.477  0.142  0.031
 2044.2   70  1.3969  0.106E-01  0.640  1.070    0.60  2.7420  0.990  1.070  0.947  0.783  1.000  2.348  2.906  2.628  1.891  0.985  0.416  0.114
 1778.4   70  1.4077  0.133E-01  0.640  1.070    0.60  3.4127  0.990  1.070  0.937  0.805  1.000  2.415  3.162  3.217  2.782  2.052  1.116  0.389
 1455.2   70  1.4162  0.160E-01  0.640  1.070    0.60  3.9101  0.990  1.070  0.920  0.815  1.000  2.446  3.371  3.664  3.668  3.325  2.688  1.913
 1270.3   70  1.4179  0.173E-01  0.640  1.070    0.60  3.8896  0.990  1.070  0.899  0.817  1.000  2.452  3.428  3.832  3.992  3.911  3.599  3.117
  944.3   70  1.4179  0.173E-01  0.640  1.070    0.60  2.7950  0.990  1.070  0.827  0.751  1.000  2.253  3.084  3.260  3.523  3.688  3.790  4.080
  693.5   70  1.4179  0.173E-01  0.640  1.070    0.60  1.9620  0.990  1.070  0.701  0.705  1.000  2.116  2.867  2.908  3.368  3.623  3.910  4.137
  527.1   70  1.4179  0.173E-01  0.640  1.070    0.60  2.7212  0.990  1.070  0.742  0.865  1.000  2.596  4.001  5.028  6.161  7.025  7.873  8.472
  399.8   70  1.4179  0.173E-01  0.640  1.070    0.60  2.0866  0.990  1.070  0.635  0.864  1.000  2.591  3.813  4.602  5.375  5.864  6.419  6.853
  329.1   70  1.4179  0.173E-01  0.640  1.070    0.60  2.4277  0.990  1.070  0.668  0.905  1.000  2.715  4.164  5.331  6.493  7.588  8.720  9.793
  229.8   70  1.4179  0.173E-01  0.640  1.070    0.60  2.2575  0.990  1.070  0.603  0.927  1.000  2.782  4.364  5.757  7.126  8.404  9.659 10.848
 7082.2   70  1.2553  0.183E+00  0.640  1.070    0.60  0.5083  0.990  1.070  0.125  0.169  1.000  0.506  0.550  0.111  0.010  0.000  0.000  0.000
  300.0   80  1.4200  0.137E-01  0.640  1.151    0.60  2.1135  0.990  1.151  0.634  0.879  1.000  2.638  3.987  5.004  6.097  7.067  8.028  8.867
  400.0   80  1.4200  0.137E-01  0.640  1.151    0.60  2.1837  0.990  1.151  0.689  0.867  1.000  2.601  3.847  4.651  5.471  6.105  6.812  7.458
  440.0   80  1.4200  0.137E-01  0.640  1.151    0.60  2.0655  0.990  1.151  0.683  0.851  1.000  2.554  3.711  4.369  5.022  5.391  5.770  6.049
  500.0   80  1.4200  0.137E-01  0.640  1.151    0.60  2.4457  0.990  1.151  0.744  0.865  1.000  2.596  3.918  4.779  5.713  6.306  6.963  7.341
  550.0   80  1.4200  0.137E-01  0.640  1.151    0.60  2.7289  0.990  1.151  0.773  0.861  1.000  2.584  3.959  4.933  6.100  6.886  7.655  8.152
  600.0   80  1.4200  0.137E-01  0.640  1.151    0.60  2.6558  0.990  1.151  0.784  0.844  1.000  2.531  3.862  4.721  5.781  6.555  7.350  7.822
  675.0   80  1.4200  0.137E-01  0.640  1.151    0.60  2.2362  0.990  1.151  0.758  0.755  1.000  2.265  3.314  3.795  4.728  5.252  5.829  6.230
  800.0   80  1.4200  0.137E-01  0.640  1.151    0.60  1.8492  0.990  1.151  0.747  0.623  1.000  1.870  2.415  2.090  2.428  2.334  2.595  2.803
  870.0   80  1.4200  0.137E-01  0.640  1.151    0.60  2.0160  0.990  1.151  0.775  0.626  1.000  1.878  2.410  2.140  2.293  2.233  2.428  2.732
 1000.0   80  1.4200  0.137E-01  0.640  1.151    0.60  2.6283  0.990  1.151  0.850  0.729  1.000  2.187  2.935  3.036  3.263  3.387  3.500  3.791
 1020.0   80  1.4200  0.137E-01  0.640  1.151    0.60  2.8217  0.990  1.151  0.857  0.740  1.000  2.219  3.044  3.168  3.414  3.560  3.647  3.950
55555.6   80  1.8123  0.377E+00  0.640  1.151    0.60  0.0766  0.990  1.151  0.002  0.004  1.000  0.011  0.500  0.002  0.000  0.000  0.000  0.000
23529.4   80  1.7926  0.394E+00  0.640  1.151    0.60  0.2096  0.990  1.151  0.026  0.021  1.000  0.063  0.501  0.010  0.000  0.000  0.000  0.000
17699.1   80  1.9542  0.666E+00  0.640  1.151    0.60  0.4469  0.990  1.151  0.061  0.038  1.000  0.115  0.502  0.017  0.000  0.000  0.000  0.000
15037.6   80  1.5722  0.269E+00  0.640  1.151    0.60  0.2930  0.990  1.151  0.065  0.047  1.000  0.140  0.504  0.025  0.001  0.000  0.000  0.000
13157.9   80  1.6818  0.227E+00  0.640  1.151    0.60  0.2984  0.990  1.151  0.134  0.064  1.000  0.193  0.506  0.032  0.001  0.000  0.000  0.000
11111.1   80  1.8154  0.557E+00  0.640  1.151    0.60  0.8504  0.990  1.151  0.160  0.094  1.000  0.282  0.513  0.044  0.002  0.000  0.000  0.000
 9708.7   80  1.8968  0.724E+00  0.640  1.151    0.60  1.3305  0.990  1.151  0.220  0.126  1.000  0.377  0.521  0.057  0.003  0.000  0.000  0.000
 8849.6   80  1.5905  0.805E+00  0.640  1.151    0.60  1.6563  0.990  1.151  0.198  0.131  1.000  0.393  0.526  0.075  0.005  0.000  0.000  0.000
 7782.1   80  1.0819  0.427E+00  0.640  1.151    0.60  1.0019  0.990  1.151  0.102  0.156  1.000  0.469  0.545  0.118  0.011  0.001  0.000  0.000
 6968.6   80  1.2648  0.119E+00  0.640  1.151    0.60  0.4026  0.990  1.151  0.186  0.202  1.000  0.607  0.573  0.133  0.014  0.001  0.000  0.000
 6097.6   80  1.4392  0.178E+00  0.640  1.151    0.60  0.8432  0.990  1.151  0.337  0.302  1.000  0.905  0.647  0.178  0.024  0.002  0.000  0.000
 5154.6   80  1.3947  0.131E+00  0.640  1.151    0.60  0.8638  0.990  1.151  0.408  0.426  1.000  1.279  0.805  0.275  0.053  0.006  0.000  0.000
 4618.9   80  1.4292  0.159E+00  0.640  1.151    0.60  1.2158  0.990  1.151  0.432  0.543  1.000  1.628  1.013  0.381  0.091  0.013  0.001  0.000
 4319.7   80  1.4226  0.148E+00  0.640  1.151    0.60  1.2953  0.990  1.151  0.459  0.597  1.000  1.790  1.163  0.462  0.125  0.020  0.002  0.000
 4016.1   80  1.4213  0.176E+00  0.640  1.151    0.60  1.5227  0.990  1.151  0.446  0.642  1.000  1.925  1.364  0.592  0.184  0.034  0.004  0.000
 3418.8   80  1.3373  0.207E+00  0.640  1.151    0.60  1.6033  0.990  1.151  0.393  0.704  1.000  2.113  1.891  1.021  0.408  0.105  0.018  0.002
 3444.7   80  1.3447  0.208E+00  0.640  1.151    0.60  1.6181  0.990  1.151  0.397  0.702  1.000  2.105  1.866  0.998  0.396  0.100  0.017  0.002
 2777.0   80  1.2968  0.202E-01  0.640  1.151    0.60  1.1606  0.990  1.151  0.844  0.732  1.000  2.196  2.383  1.577  0.752  0.250  0.061  0.011
 2320.2   80  1.3763  0.346E-02  0.640  1.151    0.60  2.3904  0.990  1.151  0.981  0.782  1.000  2.347  2.787  2.446  1.586  0.688  0.246  0.061
 2044.2   80  1.3966  0.455E-02  0.640  1.151    0.60  3.0261  0.990  1.151  0.977  0.788  1.000  2.365  3.063  2.908  2.359  1.509  0.740  0.224
 1778.4   80  1.4098  0.796E-02  0.640  1.151    0.60  3.6113  0.990  1.151  0.962  0.809  1.000  2.426  3.213  3.380  3.033  2.390  1.481  0.671
 1455.2   80  1.4183  0.120E-01  0.640  1.151    0.60  3.8635  0.990  1.151  0.935  0.807  1.000  2.422  3.350  3.717  3.739  3.568  3.025  2.370
 1270.3   80  1.4200  0.137E-01  0.640  1.151    0.60  3.6362  0.990  1.151  0.913  0.793  1.000  2.380  3.322  3.692  3.926  3.918  3.764  3.521
  944.3   80  1.4200  0.137E-01  0.640  1.151    0.60  2.4464  0.990  1.151  0.816  0.679  1.000  2.037  2.757  2.675  2.819  2.836  3.056  3.255
  693.5   80  1.4200  0.137E-01  0.640  1.151    0.60  2.1629  0.990  1.151  0.757  0.746  1.000  2.237  3.237  3.534  4.240  4.690  5.171  5.476
  527.1   80  1.4200  0.137E-01  0.640  1.151    0.60  2.6117  0.990  1.151  0.768  0.871  1.000  2.613  3.986  4.921  5.953  6.678  7.408  7.880
  399.8   80  1.4200  0.137E-01  0.640  1.151    0.60  2.1855  0.990  1.151  0.689  0.867  1.000  2.600  3.847  4.653  5.477  6.114  6.822  7.472
  329.1   80  1.4200  0.137E-01  0.640  1.151    0.60  2.3215  0.990  1.151  0.683  0.889  1.000  2.667  4.053  5.115  6.219  7.235  8.307  9.296
  229.8   80  1.4200  0.137E-01  0.640  1.151    0.60  2.1151  0.990  1.151  0.603  0.912  1.000  2.735  4.222  5.463  6.700  7.851  9.019 10.120
 7082.2   80  1.2291  0.131E+00  0.640  1.151    0.60  0.4090  0.990  1.151  0.142  0.193  1.000  0.580  0.567  0.130  0.013  0.001  0.000  0.000
  300.0   90  1.4200  0.137E-01  0.640  1.317    0.60  2.3200  0.990  1.317  0.653  0.913  1.000  2.738  4.248  5.510  6.794  7.958  9.122 10.205
  400.0   90  1.4200  0.137E-01  0.640  1.317    0.60  2.4340  0.990  1.317  0.704  0.893  1.000  2.678  4.073  5.151  6.285  7.339  8.426  9.465
  440.0   90  1.4200  0.137E-01  0.640  1.317    0.60  2.3089  0.990  1.317  0.702  0.881  1.000  2.642  3.959  4.879  5.805  6.606  7.494  8.311
  500.0   90  1.4200  0.137E-01  0.640  1.317    0.60  2.0640  0.990  1.317  0.679  0.845  1.000  2.535  3.684  4.347  5.033  5.388  5.784  6.073
  550.0   90  1.4200  0.137E-01  0.640  1.317    0.60  2.3188  0.990  1.317  0.719  0.851  1.000  2.552  3.805  4.630  5.509  6.020  6.526  6.898
  600.0   90  1.4200  0.137E-01  0.640  1.317    0.60  2.5939  0.990  1.317  0.766  0.872  1.000  2.615  3.981  4.916  5.954  6.678  7.385  7.840
  675.0   90  1.4200  0.137E-01  0.640  1.317    0.60  2.6614  0.990  1.317  0.783  0.846  1.000  2.539  3.882  4.776  5.938  6.710  7.504  7.968
  800.0   90  1.4200  0.137E-01  0.640  1.317    0.60  2.1697  0.990  1.317  0.755  0.733  1.000  2.200  3.194  3.446  4.115  4.526  5.037  5.311
  870.0   90  1.4200  0.137E-01  0.640  1.317    0.60  1.9847  0.990  1.317  0.744  0.673  1.000  2.018  2.749  2.622  2.925  3.104  3.341  3.541
 1000.0   90  1.4200  0.137E-01  0.640  1.317    0.60  2.0101  0.990  1.317  0.779  0.631  1.000  1.892  2.419  2.151  2.313  2.254  2.436  2.754
 1020.0   90  1.4200  0.137E-01  0.640  1.317    0.60  2.0810  0.990  1.317  0.795  0.660  1.000  1.979  2.551  2.314  2.498  2.464  2.604  2.940
55555.6   90  1.8123  0.377E+00  0.640  1.317    0.60  0.0882  0.990  1.317  0.003  0.005  1.000  0.015  0.500  0.002  0.000  0.000  0.000  0.000
23529.4   90  1.7926  0.394E+00  0.640  1.317    0.60  0.2482  0.990  1.317  0.038  0.027  1.000  0.082  0.501  0.013  0.000  0.000  0.000  0.000
17699.1   90  1.9542  0.666E+00  0.640  1.317    0.60  0.5475  0.990  1.317  0.086  0.050  1.000  0.151  0.504  0.023  0.000  0.000  0.000  0.000
15037.6   90  1.5722  0.269E+00  0.640  1.317    0.60  0.3551  0.990  1.317  0.092  0.061  1.000  0.183  0.506  0.033  0.001  0.000  0.000  0.000
13157.9   90  1.6818  0.227E+00  0.640  1.317    0.60  0.3774  0.990  1.317  0.181  0.085  1.000  0.254  0.511  0.042  0.002  0.000  0.000  0.000
11111.1   90  1.8154  0.557E+00  0.640  1.317    0.60  1.0794  0.990  1.317  0.210  0.126  1.000  0.377  0.522  0.058  0.003  0.000  0.000  0.000
 9708.7   90  1.8968  0.724E+00  0.640  1.317    0.60  1.6839  0.990  1.317  0.275  0.169  1.000  0.508  0.537  0.076  0.005  0.000  0.000  0.000
 8849.6   90  1.5905  0.805E+00  0.640  1.317    0.60  1.9252  0.990  1.317  0.247  0.179  1.000  0.537  0.548  0.104  0.009  0.000  0.000  0.000
 7782.1   90  1.0819  0.427E+00  0.640  1.317    0.60  1.1095  0.990  1.317  0.131  0.213  1.000  0.639  0.584  0.166  0.020  0.001  0.000  0.000
 6968.6   90  1.2648  0.119E+00  0.640  1.317    0.60  0.4876  0.990  1.317  0.230  0.273  1.000  0.819  0.632  0.183  0.025  0.002  0.000  0.000
 6097.6   90  1.4392  0.178E+00  0.640  1.317    0.60  1.0445  0.990  1.317  0.380  0.412  1.000  1.236  0.776  0.255  0.046  0.005  0.000  0.000
 5154.6   90  1.3947  0.131E+00  0.640  1.317    0.60  1.0782  0.990  1.317  0.445  0.555  1.000  1.664  1.052  0.406  0.101  0.015  0.001  0.000
 4618.9   90  1.4292  0.159E+00  0.640  1.317    0.60  1.4945  0.990  1.317  0.471  0.640  1.000  1.919  1.345  0.572  0.175  0.031  0.004  0.000
 4319.7   90  1.4226  0.148E+00  0.640  1.317    0.60  1.5834  0.990  1.317  0.501  0.666  1.000  1.999  1.533  0.698  0.236  0.048  0.006  0.001
 4016.1   90  1.4213  0.176E+00  0.640  1.317    0.60  1.7892  0.990  1.317  0.486  0.688  1.000  2.063  1.783  0.917  0.351  0.083  0.013  0.001
 3418.8   90  1.3373  0.207E+00  0.640  1.317    0.60  1.8127  0.990  1.317  0.426  0.747  1.000  2.240  2.373  1.567  0.744  0.246  0.057  0.009
 3444.7   90  1.3447  0.208E+00  0.640  1.317    0.60  1.8306  0.990  1.317  0.430  0.744  1.000  2.231  2.348  1.536  0.724  0.236  0.053  0.008
 2777.0   90  1.2968  0.202E-01  0.640  1.317    0.60  1.4870  0.990  1.317  0.857  0.791  1.000  2.374  2.772  2.311  1.362  0.554  0.174  0.040
 2320.2   90  1.3763  0.346E-02  0.640  1.317    0.60  2.8472  0.990  1.317  0.981  0.795  1.000  2.386  3.097  2.945  2.389  1.518  0.743  0.231
 2044.2   90  1.3966  0.455E-02  0.640  1.317    0.60  3.5334  0.990  1.317  0.977  0.811  1.000  2.433  3.219  3.380  3.014  2.355  1.432  0.620
 1778.4   90  1.4098  0.796E-02  0.640  1.317    0.60  3.9852  0.990  1.317  0.959  0.811  1.000  2.434  3.360  3.644  3.648  3.306  2.678  1.918
 1455.2   90  1.4183  0.120E-01  0.640  1.317    0.60  3.6679  0.990  1.317  0.923  0.793  1.000  2.380  3.323  3.690  3.924  3.908  3.750  3.499
 1270.3   90  1.4200  0.137E-01  0.640  1.317    0.60  3.1038  0.990  1.317  0.885  0.765  1.000  2.295  3.150  3.437  3.708  3.791  3.897  3.925
  944.3   90  1.4200  0.137E-01  0.640  1.317    0.60  1.9719  0.990  1.317  0.762  0.653  1.000  1.960  2.548  2.230  2.384  2.361  2.500  2.668
  693.5   90  1.4200  0.137E-01  0.640  1.317    0.60  2.6725  0.990  1.317  0.781  0.832  1.000  2.496  3.818  4.670  5.720  6.492  7.303  7.807
  527.1   90  1.4200  0.137E-01  0.640  1.317    0.60  2.1509  0.990  1.317  0.701  0.849  1.000  2.548  3.750  4.460  5.218  5.593  5.997  6.247
  399.8   90  1.4200  0.137E-01  0.640  1.317    0.60  2.4339  0.990  1.317  0.704  0.893  1.000  2.678  4.073  5.151  6.286  7.340  8.427  9.467
  329.1   90  1.4200  0.137E-01  0.640  1.317    0.60  2.1383  0.990  1.317  0.636  0.889  1.000  2.666  4.055  5.135  6.263  7.261  8.254  9.149
  229.8   90  1.4200  0.137E-01  0.640  1.317    0.60  2.2476  0.990  1.317  0.614  0.929  1.000  2.786  4.372  5.774  7.166  8.515  9.860 11.157
 7082.2   90  1.2291  0.131E+00  0.640  1.317    0.60  0.4868  0.990  1.317  0.178  0.261  1.000  0.782  0.622  0.179  0.024  0.002  0.000  0.000
  300.0   95  1.4200  0.137E-01  0.640  1.409    0.60  2.2427  0.990  1.409  0.633  0.914  1.000  2.743  4.251  5.524  6.793  7.958  9.134 10.254
  400.0   95  1.4200  0.137E-01  0.640  1.409    0.60  2.2832  0.990  1.409  0.677  0.888  1.000  2.664  4.045  5.090  6.200  7.218  8.294  9.240
  440.0   95  1.4200  0.137E-01  0.640  1.409    0.60  2.4611  0.990  1.409  0.709  0.889  1.000  2.667  4.057  5.112  6.222  7.207  8.288  9.316
  500.0   95  1.4200  0.137E-01  0.640  1.409    0.60  2.1322  0.990  1.409  0.682  0.860  1.000  2.579  3.783  4.526  5.284  5.810  6.471  7.042
  550.0   95  1.4200  0.137E-01  0.640  1.409    0.60  2.0853  0.990  1.409  0.688  0.850  1.000  2.551  3.715  4.371  5.024  5.379  5.800  6.093
  600.0   95  1.4200  0.137E-01  0.640  1.409    0.60  2.3958  0.990  1.409  0.730  0.861  1.000  2.584  3.882  4.714  5.660  6.230  6.797  7.138
  675.0   95  1.4200  0.137E-01  0.640  1.409    0.60  2.7189  0.990  1.409  0.775  0.863  1.000  2.588  3.962  4.933  6.091  6.884  7.653  8.141
  800.0   95  1.4200  0.137E-01  0.640  1.409    0.60  2.4314  0.990  1.409  0.768  0.783  1.000  2.349  3.542  4.138  5.053  5.640  6.388  6.752
  870.0   95  1.4200  0.137E-01  0.640  1.409    0.60  2.1531  0.990  1.409  0.746  0.705  1.000  2.116  3.084  3.267  3.916  4.197  4.781  5.019
 1000.0   95  1.4200  0.137E-01  0.640  1.409    0.60  1.9115  0.990  1.409  0.758  0.648  1.000  1.945  2.507  2.177  2.391  2.334  2.495  2.665
 1020.0   95  1.4200  0.137E-01  0.640  1.409    0.60  2.0278  0.990  1.409  0.763  0.652  1.000  1.957  2.569  2.268  2.372  2.375  2.516  2.682
55555.6   95  1.8123  0.377E+00  0.640  1.409    0.60  0.0947  0.990  1.409  0.004  0.006  1.000  0.017  0.500  0.003  0.000  0.000  0.000  0.000
23529.4   95  1.7926  0.394E+00  0.640  1.409    0.60  0.2711  0.990  1.409  0.046  0.031  1.000  0.094  0.501  0.015  0.000  0.000  0.000  0.000
17699.1   95  1.9542  0.666E+00  0.640  1.409    0.60  0.6096  0.990  1.409  0.102  0.058  1.000  0.173  0.505  0.026  0.001  0.000  0.000  0.000
15037.6   95  1.5722  0.269E+00  0.640  1.409    0.60  0.3929  0.990  1.409  0.108  0.070  1.000  0.210  0.508  0.038  0.001  0.000  0.000  0.000
13157.9   95  1.6818  0.227E+00  0.640  1.409    0.60  0.4277  0.990  1.409  0.208  0.097  1.000  0.292  0.514  0.048  0.002  0.000  0.000  0.000
11111.1   95  1.8154  0.557E+00  0.640  1.409    0.60  1.2180  0.990  1.409  0.237  0.146  1.000  0.437  0.529  0.067  0.004  0.000  0.000  0.000
 9708.7   95  1.8968  0.724E+00  0.640  1.409    0.60  1.8792  0.990  1.409  0.302  0.197  1.000  0.591  0.550  0.089  0.007  0.000  0.000  0.000
 8849.6   95  1.5905  0.805E+00  0.640  1.409    0.60  2.0516  0.990  1.409  0.271  0.210  1.000  0.629  0.565  0.124  0.013  0.001  0.000  0.000
 7782.1   95  1.0819  0.427E+00  0.640  1.409    0.60  1.1639  0.990  1.409  0.146  0.249  1.000  0.746  0.614  0.197  0.028  0.002  0.000  0.000
 6968.6   95  1.2648  0.119E+00  0.640  1.409    0.60  0.5359  0.990  1.409  0.251  0.317  1.000  0.952  0.678  0.217  0.034  0.003  0.000  0.000
 6097.6   95  1.4392  0.178E+00  0.640  1.409    0.60  1.1595  0.990  1.409  0.399  0.476  1.000  1.427  0.875  0.309  0.064  0.008  0.001  0.000
 5154.6   95  1.3947  0.131E+00  0.640  1.409    0.60  1.2043  0.990  1.409  0.464  0.610  1.000  1.830  1.217  0.495  0.139  0.023  0.002  0.000
 4618.9   95  1.4292  0.159E+00  0.640  1.409    0.60  1.6378  0.990  1.409  0.492  0.666  1.000  1.999  1.539  0.707  0.241  0.049  0.007  0.001
 4319.7   95  1.4226  0.148E+00  0.640  1.409    0.60  1.7240  0.990  1.409  0.521  0.684  1.000  2.051  1.742  0.871  0.326  0.076  0.012  0.001
 4016.1   95  1.4213  0.176E+00  0.640  1.409    0.60  1.9194  0.990  1.409  0.503  0.707  1.000  2.120  2.021  1.157  0.485  0.131  0.024  0.003
 3418.8   95  1.3373  0.207E+00  0.640  1.409    0.60  1.9187  0.990  1.409  0.440  0.771  1.000  2.312  2.591  1.907  0.992  0.370  0.099  0.018
 3444.7   95  1.3447  0.208E+00  0.640  1.409    0.60  1.9382  0.990  1.409  0.443  0.768  1.000  2.304  2.570  1.874  0.966  0.355  0.093  0.017
 2777.0   95  1.2968  0.202E-01  0.640  1.409    0.60  1.6824  0.990  1.409  0.864  0.810  1.000  2.430  2.923  2.611  1.722  0.792  0.286  0.076
 2320.2   95  1.3763  0.346E-02  0.640  1.409    0.60  3.1718  0.990  1.409  0.982  0.809  1.000  2.426  3.196  3.229  2.790  2.036  1.111  0.391
 2044.2   95  1.3966  0.455E-02  0.640  1.409    0.60  3.6971  0.990  1.409  0.976  0.815  1.000  2.446  3.327  3.532  3.336  2.776  1.989  1.154
 1778.4   95  1.4098  0.796E-02  0.640  1.409    0.60  3.8981  0.990  1.409  0.956  0.808  1.000  2.425  3.361  3.726  3.744  3.557  3.001  2.336
 1455.2   95  1.4183  0.120E-01  0.640  1.409    0.60  3.5938  0.990  1.409  0.909  0.783  1.000  2.350  3.313  3.654  3.884  4.014  3.912  3.890
 1270.3   95  1.4200  0.137E-01  0.640  1.409    0.60  2.9532  0.990  1.409  0.861  0.740  1.000  2.219  3.091  3.228  3.473  3.615  3.705  3.980
  944.3   95  1.4200  0.137E-01  0.640  1.409    0.60  2.0063  0.990  1.409  0.741  0.648  1.000  1.945  2.673  2.500  2.781  2.871  3.185  3.380
  693.5   95  1.4200  0.137E-01  0.640  1.409    0.60  2.7585  0.990  1.409  0.781  0.855  1.000  2.565  3.944  4.896  5.991  6.800  7.617  8.179
  527.1   95  1.4200  0.137E-01  0.640  1.409    0.60  2.0560  0.990  1.409  0.676  0.845  1.000  2.535  3.683  4.323  5.007  5.363  5.846  6.202
  399.8   95  1.4200  0.137E-01  0.640  1.409    0.60  2.2807  0.990  1.409  0.677  0.888  1.000  2.663  4.044  5.088  6.199  7.217  8.292  9.237
  329.1   95  1.4200  0.137E-01  0.640  1.409    0.60  2.2796  0.990  1.409  0.652  0.907  1.000  2.722  4.210  5.432  6.687  7.808  8.944  9.984
  229.8   95  1.4200  0.137E-01  0.640  1.409    0.60  2.1239  0.990  1.409  0.585  0.926  1.000  2.779  4.357  5.752  7.136  8.474  9.796 11.059
 7082.2   95  1.2291  0.131E+00  0.640  1.409    0.60  0.5304  0.990  1.409  0.197  0.303  1.000  0.908  0.665  0.212  0.033  0.003  0.000  0.000
  300.0   99  1.4200  0.137E-01  0.640  1.409    0.60  2.2427  0.990  1.409  0.633  0.914  1.000  2.743  4.251  5.524  6.793  7.958  9.134 10.254
  400.0   99  1.4200  0.137E-01  0.640  1.409    0.60  2.2832  0.990  1.409  0.677  0.888  1.000  2.664  4.045  5.090  6.200  7.218  8.294  9.240
  440.0   99  1.4200  0.137E-01  0.640  1.409    0.60  2.4611  0.990  1.409  0.709  0.889  1.000  2.667  4.057  5.112  6.222  7.207  8.288  9.316
  500.0   99  1.4200  0.137E-01  0.640  1.409    0.60  2.1322  0.990  1.409  0.682  0.860  1.000  2.579  3.783  4.526  5.284  5.810  6.471  7.042
  550.0   99  1.4200  0.137E-01  0.640  1.409    0.60  2.0853  0.990  1.409  0.688  0.850  1.000  2.551  3.715  4.371  5.024  5.379  5.800  6.093
  600.0   99  1.4200  0.137E-01  0.640  1.409    0.60  2.3958  0.990  1.409  0.730  0.861  1.000  2.584  3.882  4.714  5.660  6.230  6.797  7.138
  675.0   99  1.4200  0.137E-01  0.640  1.409    0.60  2.7189  0.990  1.409  0.775  0.863  1.000  2.588  3.962  4.933  6.091  6.884  7.653  8.141
  800.0   99  1.4200  0.137E-01  0.640  1.409    0.60  2.4314  0.990  1.409  0.768  0.783  1.000  2.349  3.542  4.138  5.053  5.640  6.388  6.752
  870.0   99  1.4200  0.137E-01  0.640  1.409    0.60  2.1531  0.990  1.409  0.746  0.705  1.000  2.116  3.084  3.267  3.916  4.197  4.781  5.019
 1000.0   99  1.4200  0.137E-01  0.640  1.409    0.60  1.9115  0.990  1.409  0.758  0.648  1.000  1.945  2.507  2.177  2.391  2.334  2.495  2.665
 1020.0   99  1.4200  0.137E-01  0.640  1.409    0.60  2.0278  0.990  1.409  0.763  0.652  1.000  1.957  2.569  2.268  2.372  2.375  2.516  2.682
55555.6   99  1.8123  0.377E+00  0.640  1.409    0.60  0.0947  0.990  1.409  0.004  0.006  1.000  0.017  0.500  0.003  0.000  0.000  0.000  0.000
23529.4   99  1.7926  0.394E+00  0.640  1.409    0.60  0.2711  0.990  1.409  0.046  0.031  1.000  0.094  0.501  0.015  0.000  0.000  0.000  0.000
17699.1   99  1.9542  0.666E+00  0.640  1.409    0.60  0.6096  0.990  1.409  0.102  0.058  1.000  0.173  0.505  0.026  0.001  0.000  0.000  0.000
15037.6   99  1.5722  0.269E+00  0.640  1.409    0.60  0.3929  0.990  1.409  0.108  0.070  1.000  0.210  0.508  0.038  0.001  0.000  0.000  0.000
13157.9   99  1.6818  0.227E+00  0.640  1.409    0.60  0.4277  0.990  1.409  0.208  0.097  1.000  0.292  0.514  0.048  0.002  0.000  0.000  0.000
11111.1   99  1.8154  0.557E+00  0.640  1.409    0.60  1.2180  0.990  1.409  0.237  0.146  1.000  0.437  0.529  0.067  0.004  0.000  0.000  0.000
 9708.7   99  1.8968  0.724E+00  0.640  1.409    0.60  1.8792  0.990  1.409  0.302  0.197  1.000  0.591  0.550  0.089  0.007  0.000  0.000  0.000
 8849.6   99  1.5905  0.805E+00  0.640  1.409    0.60  2.0516  0.990  1.409  0.271  0.210  1.000  0.629  0.565  0.124  0.013  0.001  0.000  0.000
 7782.1   99  1.0819  0.427E+00  0.640  1.409    0.60  1.1639  0.990  1.409  0.146  0.249  1.000  0.746  0.614  0.197  0.028  0.002  0.000  0.000
 6968.6   99  1.2648  0.119E+00  0.640  1.409    0.60  0.5359  0.990  1.409  0.251  0.317  1.000  0.952  0.678  0.217  0.034  0.003  0.000  0.000
 6097.6   99  1.4392  0.178E+00  0.640  1.409    0.60  1.1595  0.990  1.409  0.399  0.476  1.000  1.427  0.875  0.309  0.064  0.008  0.001  0.000
 5154.6   99  1.3947  0.131E+00  0.640  1.409    0.60  1.2043  0.990  1.409  0.464  0.610  1.000  1.830  1.217  0.495  0.139  0.023  0.002  0.000
 4618.9   99  1.4292  0.159E+00  0.640  1.409    0.60  1.6378  0.990  1.409  0.492  0.666  1.000  1.999  1.539  0.707  0.241  0.049  0.007  0.001
 4319.7   99  1.4226  0.148E+00  0.640  1.409    0.60  1.7240  0.990  1.409  0.521  0.684  1.000  2.051  1.742  0.871  0.326  0.076  0.012  0.001
 4016.1   99  1.4213  0.176E+00  0.640  1.409    0.60  1.9194  0.990  1.409  0.503  0.707  1.000  2.120  2.021  1.157  0.485  0.131  0.024  0.003
 3418.8   99  1.3373  0.207E+00  0.640  1.409    0.60  1.9187  0.990  1.409  0.440  0.771  1.000  2.312  2.591  1.907  0.992  0.370  0.099  0.018
 3444.7   99  1.3447  0.208E+00  0.640  1.409    0.60  1.9382  0.990  1.409  0.443  0.768  1.000  2.304  2.570  1.874  0.966  0.355  0.093  0.017
 2777.0   99  1.2968  0.202E-01  0.640  1.409    0.60  1.6824  0.990  1.409  0.864  0.810  1.000  2.430  2.923  2.611  1.722  0.792  0.286  0.076
 2320.2   99  1.3763  0.346E-02  0.640  1.409    0.60  3.1718  0.990  1.409  0.982  0.809  1.000  2.426  3.196  3.229  2.790  2.036  1.111  0.391
 2044.2   99  1.3966  0.455E-02  0.640  1.409    0.60  3.6971  0.990  1.409  0.976  0.815  1.000  2.446  3.327  3.532  3.336  2.776  1.989  1.154
 1778.4   99  1.4098  0.796E-02  0.640  1.409    0.60  3.8981  0.990  1.409  0.956  0.808  1.000  2.425  3.361  3.726  3.744  3.557  3.001  2.336
 1455.2   99  1.4183  0.120E-01  0.640  1.409    0.60  3.5938  0.990  1.409  0.909  0.783  1.000  2.350  3.313  3.654  3.884  4.014  3.912  3.890
 1270.3   99  1.4200  0.137E-01  0.640  1.409    0.60  2.9532  0.990  1.409  0.861  0.740  1.000  2.219  3.091  3.228  3.473  3.615  3.705  3.980
  944.3   99  1.4200  0.137E-01  0.640  1.409    0.60  2.0063  0.990  1.409  0.741  0.648  1.000  1.945  2.673  2.500  2.781  2.871  3.185  3.380
  693.5   99  1.4200  0.137E-01  0.640  1.409    0.60  2.7585  0.990  1.409  0.781  0.855  1.000  2.565  3.944  4.896  5.991  6.800  7.617  8.179
  527.1   99  1.4200  0.137E-01  0.640  1.409    0.60  2.0560  0.990  1.409  0.676  0.845  1.000  2.535  3.683  4.323  5.007  5.363  5.846  6.202
  399.8   99  1.4200  0.137E-01  0.640  1.409    0.60  2.2807  0.990  1.409  0.677  0.888  1.000  2.663  4.044  5.088  6.199  7.217  8.292  9.237
  329.1   99  1.4200  0.137E-01  0.640  1.409    0.60  2.2796  0.990  1.409  0.652  0.907  1.000  2.722  4.210  5.432  6.687  7.808  8.944  9.984
  229.8   99  1.4200  0.137E-01  0.640  1.409    0.60  2.1239  0.990  1.409  0.585  0.926  1.000  2.779  4.357  5.752  7.136  8.474  9.796 11.059
 7082.2   99  1.2291  0.131E+00  0.640  1.409    0.60  0.5304  0.990  1.409  0.197  0.303  1.000  0.908  0.665  0.212  0.033  0.003  0.000  0.000
