 h2so4 RRTMG LUT interpolated from GADS (DAR 09/2013)
 V0.1 - contains Fast-J wavelengths but is the same as the original jv_spec.dat values
  w(nm)   RH       N         iK  RgDry  RgWet      Sg       Q  Alpha  r-eff ss-alb  g-sym  pi(0)  pi(1)  pi(2)  pi(3)  pi(4)  pi(5)  pi(6)  pi(7)
  300.0    0  1.3326  0.000E+00  2.032  2.032    0.60  2.1450  0.990  2.032  1.000  0.864  1.000  2.592  3.930  4.635  5.270  5.858  6.406  7.095
  400.0    0  1.3326  0.000E+00  2.032  2.032    0.60  1.9833  0.990  2.032  1.000  0.826  1.000  2.479  3.723  4.232  4.787  5.280  5.725  6.240
  440.0    0  1.3326  0.000E+00  2.032  2.032    0.60  2.1120  0.990  2.032  1.000  0.827  1.000  2.482  3.719  4.244  4.714  5.235  5.668  6.276
  500.0    0  1.3326  0.000E+00  2.032  2.032    0.60  2.5159  0.990  2.032  1.000  0.856  1.000  2.568  3.912  4.678  5.399  6.039  6.654  7.402
  550.0    0  1.3326  0.000E+00  2.032  2.032    0.60  2.3040  0.990  2.032  1.000  0.790  1.000  2.371  3.604  4.108  4.836  5.163  5.618  5.915
  600.0    0  1.3326  0.000E+00  2.032  2.032    0.60  2.0039  0.990  2.032  1.000  0.739  1.000  2.216  3.341  3.522  3.990  4.189  4.363  4.465
  675.0    0  1.3326  0.000E+00  2.032  2.032    0.60  2.2843  0.990  2.032  1.000  0.800  1.000  2.401  3.683  4.205  4.829  5.243  5.541  5.756
  800.0    0  1.3326  0.000E+00  2.032  2.032    0.60  2.8132  0.990  2.032  1.000  0.830  1.000  2.491  3.864  4.625  5.528  6.248  7.006  7.643
  870.0    0  1.3326  0.000E+00  2.032  2.032    0.60  2.5898  0.990  2.032  1.000  0.765  1.000  2.295  3.579  4.109  5.054  5.733  6.445  7.076
 1000.0    0  1.3326  0.000E+00  2.032  2.032    0.60  1.8491  0.990  2.032  1.000  0.713  1.000  2.139  3.057  3.030  3.308  3.468  3.715  3.895
 1020.0    0  1.3326  0.000E+00  2.032  2.032    0.60  1.9346  0.990  2.032  1.000  0.692  1.000  2.075  2.964  2.895  3.019  3.086  3.304  3.438
55555.6    0  1.1684  0.258E+00  2.032  2.032    0.60  0.1496  0.990  2.032  0.002  0.009  1.000  0.027  0.500  0.006  0.000  0.000  0.000  0.000
23529.4    0  1.1684  0.258E+00  2.032  2.032    0.60  0.3655  0.990  2.032  0.023  0.051  1.000  0.152  0.505  0.035  0.001  0.000  0.000  0.000
17699.1    0  1.1684  0.258E+00  2.032  2.032    0.60  0.4948  0.990  2.032  0.048  0.091  1.000  0.274  0.515  0.063  0.003  0.000  0.000  0.000
15037.6    0  1.1684  0.258E+00  2.032  2.032    0.60  0.5870  0.990  2.032  0.070  0.130  1.000  0.389  0.531  0.090  0.007  0.000  0.000  0.000
13157.9    0  1.1684  0.258E+00  2.032  2.032    0.60  0.6726  0.990  2.032  0.093  0.174  1.000  0.522  0.555  0.123  0.012  0.001  0.000  0.000
11111.1    0  1.1796  0.164E+00  2.032  2.032    0.60  0.5394  0.990  2.032  0.125  0.249  1.000  0.747  0.613  0.177  0.024  0.002  0.000  0.000
 9708.7    0  1.3159  0.103E+00  2.032  2.032    0.60  0.5699  0.990  2.032  0.347  0.350  1.000  1.049  0.712  0.232  0.039  0.004  0.000  0.000
 8849.6    0  1.2787  0.149E+00  2.032  2.032    0.60  0.7610  0.990  2.032  0.275  0.427  1.000  1.281  0.827  0.310  0.064  0.008  0.001  0.000
 7782.1    0  1.2991  0.655E-01  2.032  2.032    0.60  0.6212  0.990  2.032  0.491  0.539  1.000  1.618  1.047  0.418  0.106  0.016  0.002  0.000
 6968.6    0  1.3311  0.555E-01  2.032  2.032    0.60  0.8194  0.990  2.032  0.606  0.637  1.000  1.912  1.346  0.565  0.170  0.031  0.004  0.000
 6097.6    0  1.3533  0.119E+00  2.032  2.032    0.60  1.3984  0.990  2.032  0.504  0.695  1.000  2.085  1.796  0.903  0.341  0.083  0.013  0.002
 5154.6    0  1.3366  0.293E-01  2.032  2.032    0.60  1.3497  0.990  2.032  0.815  0.713  1.000  2.140  2.233  1.378  0.624  0.192  0.042  0.007
 4618.9    0  1.3577  0.343E-01  2.032  2.032    0.60  1.8095  0.990  2.032  0.814  0.765  1.000  2.295  2.592  2.009  1.079  0.388  0.106  0.021
 4319.7    0  1.3621  0.267E-01  2.032  2.032    0.60  2.0653  0.990  2.032  0.858  0.787  1.000  2.360  2.737  2.321  1.386  0.554  0.175  0.040
 4016.1    0  1.3799  0.213E-01  2.032  2.032    0.60  2.4699  0.990  2.032  0.895  0.792  1.000  2.375  2.865  2.563  1.735  0.819  0.312  0.082
 3418.8    0  1.4670  0.487E-01  2.032  2.032    0.60  3.5593  0.990  2.032  0.817  0.806  1.000  2.419  3.139  3.252  2.832  2.128  1.166  0.430
 3444.7    0  1.4602  0.438E-01  2.032  2.032    0.60  3.5517  0.990  2.032  0.831  0.805  1.000  2.416  3.134  3.223  2.789  2.071  1.114  0.394
 2777.0    0  1.1248  0.530E-01  2.032  2.032    0.60  1.0622  0.990  2.032  0.471  0.899  1.000  2.698  3.796  4.192  3.944  3.237  2.217  1.223
 2320.2    0  1.2971  0.000E+00  2.032  2.032    0.60  3.4880  0.990  2.032  1.000  0.869  1.000  2.608  3.737  4.307  4.430  4.248  3.715  3.011
 2044.2    0  1.3176  0.000E+00  2.032  2.032    0.60  3.8615  0.990  2.032  1.000  0.854  1.000  2.561  3.715  4.318  4.603  4.619  4.375  4.027
 1778.4    0  1.3291  0.000E+00  2.032  2.032    0.60  3.7431  0.990  2.032  1.000  0.830  1.000  2.491  3.618  4.167  4.503  4.631  4.630  4.567
 1455.2    0  1.3326  0.000E+00  2.032  2.032    0.60  2.7579  0.990  2.032  1.000  0.757  1.000  2.271  3.195  3.435  3.601  3.641  3.700  3.843
 1270.3    0  1.3326  0.000E+00  2.032  2.032    0.60  2.1099  0.990  2.032  1.000  0.707  1.000  2.121  2.878  2.725  2.607  2.474  2.352  2.426
  944.3    0  1.3326  0.000E+00  2.032  2.032    0.60  2.1406  0.990  2.032  1.000  0.757  1.000  2.272  3.379  3.657  4.163  4.558  5.023  5.377
  693.5    0  1.3326  0.000E+00  2.032  2.032    0.60  2.4467  0.990  2.032  1.000  0.818  1.000  2.454  3.752  4.341  5.072  5.555  6.036  6.433
  527.1    0  1.3326  0.000E+00  2.032  2.032    0.60  2.3680  0.990  2.032  1.000  0.858  1.000  2.573  3.874  4.567  5.187  5.743  6.267  6.905
  399.8    0  1.3326  0.000E+00  2.032  2.032    0.60  1.9849  0.990  2.032  1.000  0.825  1.000  2.474  3.717  4.222  4.786  5.280  5.732  6.247
  329.1    0  1.3326  0.000E+00  2.032  2.032    0.60  2.0655  0.990  2.032  1.000  0.814  1.000  2.442  3.720  4.264  4.872  5.433  5.883  6.445
  229.8    0  1.3326  0.000E+00  2.032  2.032    0.60  2.2545  0.990  2.032  1.000  0.854  1.000  2.561  3.937  4.677  5.405  6.161  6.809  7.617
 7082.2    0  1.3270  0.562E-01  2.032  2.032    0.60  0.7823  0.990  2.032  0.593  0.626  1.000  1.877  1.298  0.541  0.159  0.028  0.003  0.000
  300.0   50  1.3797  0.114E-01  2.032  3.046    0.60  2.1486  0.990  3.046  0.569  0.952  1.000  2.855  4.588  6.211  7.806  9.382 10.943 12.478
  400.0   50  1.3797  0.114E-01  2.032  3.046    0.60  2.1971  0.990  3.046  0.601  0.940  1.000  2.821  4.471  5.958  7.424  8.853 10.273 11.661
  440.0   50  1.3797  0.114E-01  2.032  3.046    0.60  2.1025  0.990  3.046  0.593  0.929  1.000  2.788  4.370  5.749  7.109  8.430  9.745 11.021
  500.0   50  1.3797  0.114E-01  2.032  3.046    0.60  2.2292  0.990  3.046  0.629  0.929  1.000  2.787  4.358  5.716  7.050  8.342  9.639 10.919
  550.0   50  1.3797  0.114E-01  2.032  3.046    0.60  2.0945  0.990  3.046  0.619  0.915  1.000  2.745  4.239  5.465  6.668  7.794  8.921 10.019
  600.0   50  1.3797  0.114E-01  2.032  3.046    0.60  2.2833  0.990  3.046  0.657  0.917  1.000  2.752  4.279  5.546  6.822  8.003  9.181 10.301
  675.0   50  1.3797  0.114E-01  2.032  3.046    0.60  2.1522  0.990  3.046  0.657  0.899  1.000  2.697  4.127  5.231  6.353  7.391  8.423  9.393
  800.0   50  1.3797  0.114E-01  2.032  3.046    0.60  2.3569  0.990  3.046  0.706  0.896  1.000  2.688  4.103  5.176  6.265  7.284  8.341  9.382
  870.0   50  1.3797  0.114E-01  2.032  3.046    0.60  2.4101  0.990  3.046  0.726  0.897  1.000  2.692  4.100  5.144  6.202  7.166  8.177  9.163
 1000.0   50  1.3797  0.114E-01  2.032  3.046    0.60  2.0774  0.990  3.046  0.695  0.865  1.000  2.594  3.819  4.557  5.259  5.755  6.268  6.717
 1020.0   50  1.3797  0.114E-01  2.032  3.046    0.60  2.0357  0.990  3.046  0.694  0.857  1.000  2.572  3.768  4.456  5.155  5.587  6.033  6.442
55555.6   50  1.7343  0.386E+00  2.032  3.046    0.60  0.2457  0.990  3.046  0.032  0.026  1.000  0.077  0.501  0.013  0.000  0.000  0.000  0.000
23529.4   50  1.7349  0.395E+00  2.032  3.046    0.60  0.9553  0.990  3.046  0.245  0.149  1.000  0.448  0.532  0.071  0.004  0.000  0.000  0.000
17699.1   50  1.7588  0.446E+00  2.032  3.046    0.60  1.7290  0.990  3.046  0.353  0.292  1.000  0.877  0.613  0.136  0.015  0.001  0.000  0.000
15037.6   50  1.5027  0.362E+00  2.032  3.046    0.60  1.5257  0.990  3.046  0.312  0.376  1.000  1.128  0.720  0.228  0.038  0.003  0.000  0.000
13157.9   50  1.5337  0.292E+00  2.032  3.046    0.60  1.6868  0.990  3.046  0.385  0.501  1.000  1.502  0.904  0.324  0.071  0.008  0.001  0.000
11111.1   50  1.5882  0.344E+00  2.032  3.046    0.60  2.2466  0.990  3.046  0.434  0.613  1.000  1.838  1.276  0.580  0.184  0.031  0.003  0.000
 9708.7   50  1.6413  0.508E+00  2.032  3.046    0.60  2.6552  0.990  3.046  0.433  0.666  1.000  1.997  1.762  1.039  0.445  0.105  0.016  0.002
 8849.6   50  1.4307  0.516E+00  2.032  3.046    0.60  2.3610  0.990  3.046  0.387  0.703  1.000  2.108  2.086  1.314  0.627  0.192  0.038  0.005
 7782.1   50  1.2466  0.243E+00  2.032  3.046    0.60  1.6240  0.990  3.046  0.340  0.755  1.000  2.266  2.426  1.632  0.800  0.282  0.069  0.012
 6968.6   50  1.3269  0.172E+00  2.032  3.046    0.60  1.9048  0.990  3.046  0.470  0.790  1.000  2.369  2.736  2.171  1.211  0.489  0.145  0.030
 6097.6   50  1.4180  0.218E+00  2.032  3.046    0.60  2.5360  0.990  3.046  0.513  0.821  1.000  2.463  3.091  2.927  2.135  1.179  0.487  0.139
 5154.6   50  1.3078  0.147E+00  2.032  3.046    0.60  2.2600  0.990  3.046  0.530  0.859  1.000  2.576  3.438  3.529  3.034  2.099  1.117  0.447
 4618.9   50  1.3434  0.122E+00  2.032  3.046    0.60  2.6492  0.990  3.046  0.602  0.870  1.000  2.609  3.571  3.895  3.637  2.968  1.980  1.030
 4319.7   50  1.3490  0.116E+00  2.032  3.046    0.60  2.7883  0.990  3.046  0.615  0.878  1.000  2.634  3.669  4.099  4.006  3.483  2.623  1.608
 4016.1   50  1.3559  0.107E+00  2.032  3.046    0.60  2.9297  0.990  3.046  0.635  0.880  1.000  2.641  3.729  4.253  4.318  3.964  3.271  2.333
 3418.8   50  1.3709  0.124E+00  2.032  3.046    0.60  2.9195  0.990  3.046  0.591  0.893  1.000  2.680  3.885  4.630  4.996  5.017  4.737  4.174
 3444.7   50  1.3700  0.120E+00  2.032  3.046    0.60  2.9404  0.990  3.046  0.598  0.893  1.000  2.678  3.876  4.609  4.959  4.965  4.665  4.083
 2777.0   50  1.1943  0.474E-01  2.032  3.046    0.60  2.4691  0.990  3.046  0.700  0.934  1.000  2.801  4.227  5.219  5.797  5.995  5.843  5.412
 2320.2   50  1.3325  0.980E-03  2.032  3.046    0.60  3.2124  0.990  3.046  0.989  0.801  1.000  2.404  3.448  3.839  4.114  4.242  4.328  4.435
 2044.2   50  1.3546  0.233E-02  2.032  3.046    0.60  2.0455  0.990  3.046  0.954  0.675  1.000  2.025  2.684  2.452  2.478  2.262  2.294  2.415
 1778.4   50  1.3679  0.541E-02  2.032  3.046    0.60  1.8090  0.990  3.046  0.869  0.669  1.000  2.007  2.713  2.412  2.528  2.502  2.600  2.752
 1455.2   50  1.3775  0.919E-02  2.032  3.046    0.60  2.5896  0.990  3.046  0.830  0.834  1.000  2.503  3.820  4.604  5.584  6.365  7.163  7.753
 1270.3   50  1.3797  0.114E-01  2.032  3.046    0.60  2.6436  0.990  3.046  0.780  0.867  1.000  2.601  4.008  4.968  6.105  6.926  7.727  8.286
  944.3   50  1.3797  0.114E-01  2.032  3.046    0.60  2.2222  0.990  3.046  0.707  0.879  1.000  2.638  3.940  4.816  5.692  6.413  7.152  7.856
  693.5   50  1.3797  0.114E-01  2.032  3.046    0.60  2.0912  0.990  3.046  0.652  0.890  1.000  2.671  4.061  5.098  6.169  7.144  8.134  9.046
  527.1   50  1.3797  0.114E-01  2.032  3.046    0.60  2.1300  0.990  3.046  0.619  0.920  1.000  2.761  4.281  5.552  6.801  7.985  9.175 10.340
  399.8   50  1.3797  0.114E-01  2.032  3.046    0.60  2.1972  0.990  3.046  0.601  0.940  1.000  2.821  4.471  5.959  7.425  8.855 10.275 11.663
  329.1   50  1.3797  0.114E-01  2.032  3.046    0.60  2.1257  0.990  3.046  0.571  0.947  1.000  2.841  4.538  6.106  7.645  9.165 10.673 12.154
  229.8   50  1.3797  0.114E-01  2.032  3.046    0.60  2.0988  0.990  3.046  0.546  0.958  1.000  2.875  4.665  6.380  8.070  9.743 11.401 13.035
 7082.2   50  1.3166  0.180E+00  2.032  3.046    0.60  1.8463  0.990  3.046  0.451  0.784  1.000  2.353  2.697  2.086  1.136  0.449  0.129  0.026
  300.0   70  1.4179  0.173E-01  2.032  3.398    0.60  2.1132  0.990  3.398  0.537  0.958  1.000  2.873  4.684  6.434  8.154  9.847 11.512 13.146
  400.0   70  1.4179  0.173E-01  2.032  3.398    0.60  2.1283  0.990  3.398  0.543  0.951  1.000  2.854  4.610  6.281  7.918  9.523 11.096 12.626
  440.0   70  1.4179  0.173E-01  2.032  3.398    0.60  2.1419  0.990  3.398  0.549  0.949  1.000  2.846  4.580  6.216  7.814  9.381 10.917 12.412
  500.0   70  1.4179  0.173E-01  2.032  3.398    0.60  2.1928  0.990  3.398  0.564  0.946  1.000  2.837  4.544  6.139  7.699  9.217 10.702 12.139
  550.0   70  1.4179  0.173E-01  2.032  3.398    0.60  2.1345  0.990  3.398  0.558  0.937  1.000  2.812  4.466  5.983  7.473  8.918 10.330 11.676
  600.0   70  1.4179  0.173E-01  2.032  3.398    0.60  2.2356  0.990  3.398  0.584  0.938  1.000  2.813  4.459  5.960  7.435  8.867 10.282 11.637
  675.0   70  1.4179  0.173E-01  2.032  3.398    0.60  2.1294  0.990  3.398  0.572  0.926  1.000  2.778  4.348  5.729  7.074  8.350  9.606 10.808
  800.0   70  1.4179  0.173E-01  2.032  3.398    0.60  2.2605  0.990  3.398  0.610  0.918  1.000  2.753  4.293  5.618  6.949  8.170  9.360 10.442
  870.0   70  1.4179  0.173E-01  2.032  3.398    0.60  2.1152  0.990  3.398  0.596  0.899  1.000  2.697  4.134  5.301  6.490  7.569  8.645  9.577
 1000.0   70  1.4179  0.173E-01  2.032  3.398    0.60  2.3802  0.990  3.398  0.656  0.905  1.000  2.714  4.170  5.349  6.551  7.680  8.843  9.909
 1020.0   70  1.4179  0.173E-01  2.032  3.398    0.60  2.4204  0.990  3.398  0.662  0.905  1.000  2.714  4.164  5.353  6.551  7.673  8.820  9.921
55555.6   70  1.8355  0.478E+00  2.032  3.398    0.60  0.3257  0.990  3.398  0.048  0.033  1.000  0.099  0.502  0.016  0.000  0.000  0.000  0.000
23529.4   70  1.8130  0.494E+00  2.032  3.398    0.60  1.4116  0.990  3.398  0.297  0.198  1.000  0.594  0.552  0.089  0.007  0.000  0.000  0.000
17699.1   70  1.9871  0.642E+00  2.032  3.398    0.60  2.6867  0.990  3.398  0.419  0.373  1.000  1.120  0.668  0.179  0.028  0.002  0.000  0.000
15037.6   70  1.5717  0.318E+00  2.032  3.398    0.60  1.7812  0.990  3.398  0.388  0.486  1.000  1.458  0.868  0.302  0.063  0.007  0.001  0.000
13157.9   70  1.6893  0.278E+00  2.032  3.398    0.60  2.3799  0.990  3.398  0.502  0.587  1.000  1.760  1.101  0.432  0.119  0.018  0.002  0.000
11111.1   70  1.7564  0.559E+00  2.032  3.398    0.60  2.8327  0.990  3.398  0.448  0.650  1.000  1.950  1.668  0.998  0.428  0.095  0.014  0.001
 9708.7   70  1.8590  0.755E+00  2.032  3.398    0.60  2.9247  0.990  3.398  0.459  0.673  1.000  2.020  2.117  1.442  0.805  0.280  0.065  0.009
 8849.6   70  1.6034  0.777E+00  2.032  3.398    0.60  2.7375  0.990  3.398  0.440  0.708  1.000  2.124  2.411  1.807  1.072  0.478  0.141  0.025
 7782.1   70  1.1347  0.407E+00  2.032  3.398    0.60  1.8758  0.990  3.398  0.334  0.779  1.000  2.338  2.759  2.240  1.343  0.626  0.214  0.050
 6968.6   70  1.2809  0.172E+00  2.032  3.398    0.60  1.8620  0.990  3.398  0.449  0.823  1.000  2.470  3.018  2.707  1.780  0.869  0.322  0.086
 6097.6   70  1.4549  0.217E+00  2.032  3.398    0.60  2.7816  0.990  3.398  0.534  0.837  1.000  2.511  3.308  3.395  2.900  1.996  1.041  0.393
 5154.6   70  1.3515  0.151E+00  2.032  3.398    0.60  2.6330  0.990  3.398  0.564  0.872  1.000  2.615  3.596  3.944  3.715  3.060  2.074  1.105
 4618.9   70  1.4025  0.150E+00  2.032  3.398    0.60  2.9076  0.990  3.398  0.580  0.875  1.000  2.625  3.697  4.218  4.284  3.941  3.238  2.276
 4319.7   70  1.4035  0.143E+00  2.032  3.398    0.60  2.9325  0.990  3.398  0.582  0.880  1.000  2.639  3.759  4.374  4.553  4.371  3.832  3.009
 4016.1   70  1.4100  0.161E+00  2.032  3.398    0.60  2.8446  0.990  3.398  0.551  0.888  1.000  2.663  3.846  4.564  4.891  4.868  4.524  3.887
 3418.8   70  1.3584  0.195E+00  2.032  3.398    0.60  2.6075  0.990  3.398  0.507  0.910  1.000  2.731  4.077  5.012  5.584  5.823  5.753  5.397
 3444.7   70  1.3646  0.194E+00  2.032  3.398    0.60  2.6183  0.990  3.398  0.508  0.909  1.000  2.727  4.064  4.990  5.552  5.781  5.703  5.339
 2777.0   70  1.2728  0.350E-01  2.032  3.398    0.60  3.2971  0.990  3.398  0.780  0.909  1.000  2.727  4.065  4.985  5.595  5.935  6.050  5.991
 2320.2   70  1.3750  0.847E-02  2.032  3.398    0.60  1.9706  0.990  3.398  0.844  0.669  1.000  2.008  2.607  2.339  2.418  2.256  2.347  2.516
 2044.2   70  1.3969  0.106E-01  2.032  3.398    0.60  2.0238  0.990  3.398  0.783  0.695  1.000  2.084  2.945  2.923  3.332  3.540  3.929  4.140
 1778.4   70  1.4077  0.133E-01  2.032  3.398    0.60  2.5986  0.990  3.398  0.780  0.824  1.000  2.471  3.764  4.565  5.572  6.333  7.136  7.658
 1455.2   70  1.4162  0.160E-01  2.032  3.398    0.60  2.4214  0.990  3.398  0.712  0.875  1.000  2.624  3.971  4.892  5.881  6.542  7.203  7.592
 1270.3   70  1.4179  0.173E-01  2.032  3.398    0.60  2.0878  0.990  3.398  0.635  0.863  1.000  2.590  3.811  4.601  5.377  5.866  6.419  6.851
  944.3   70  1.4179  0.173E-01  2.032  3.398    0.60  2.2526  0.990  3.398  0.628  0.899  1.000  2.697  4.132  5.298  6.490  7.593  8.701  9.725
  693.5   70  1.4179  0.173E-01  2.032  3.398    0.60  2.1599  0.990  3.398  0.580  0.926  1.000  2.778  4.347  5.728  7.072  8.343  9.589 10.776
  527.1   70  1.4179  0.173E-01  2.032  3.398    0.60  2.1427  0.990  3.398  0.556  0.940  1.000  2.821  4.494  6.042  7.559  9.031 10.466 11.842
  399.8   70  1.4179  0.173E-01  2.032  3.398    0.60  2.1278  0.990  3.398  0.543  0.951  1.000  2.854  4.610  6.281  7.918  9.524 11.097 12.626
  329.1   70  1.4179  0.173E-01  2.032  3.398    0.60  2.1301  0.990  3.398  0.541  0.957  1.000  2.870  4.669  6.401  8.101  9.775 11.420 13.031
  229.8   70  1.4179  0.173E-01  2.032  3.398    0.60  2.0939  0.990  3.398  0.535  0.960  1.000  2.880  4.715  6.502  8.263 10.003 11.719 13.411
 7082.2   70  1.2553  0.183E+00  2.032  3.398    0.60  1.7508  0.990  3.398  0.413  0.819  1.000  2.458  2.986  2.624  1.675  0.798  0.288  0.075
  300.0   80  1.4200  0.137E-01  2.032  3.653    0.60  2.0993  0.990  3.653  0.542  0.955  1.000  2.865  4.656  6.380  8.078  9.755 11.410 13.037
  400.0   80  1.4200  0.137E-01  2.032  3.653    0.60  2.1530  0.990  3.653  0.562  0.949  1.000  2.846  4.579  6.215  7.824  9.408 10.969 12.496
  440.0   80  1.4200  0.137E-01  2.032  3.653    0.60  2.1474  0.990  3.653  0.566  0.944  1.000  2.833  4.534  6.121  7.685  9.222 10.739 12.213
  500.0   80  1.4200  0.137E-01  2.032  3.653    0.60  2.1240  0.990  3.653  0.569  0.937  1.000  2.812  4.463  5.972  7.455  8.901 10.335 11.728
  550.0   80  1.4200  0.137E-01  2.032  3.653    0.60  2.1859  0.990  3.653  0.589  0.935  1.000  2.805  4.439  5.918  7.378  8.794 10.193 11.542
  600.0   80  1.4200  0.137E-01  2.032  3.653    0.60  2.1392  0.990  3.653  0.587  0.926  1.000  2.778  4.357  5.754  7.141  8.482  9.808 11.071
  675.0   80  1.4200  0.137E-01  2.032  3.653    0.60  2.2080  0.990  3.653  0.613  0.923  1.000  2.770  4.320  5.668  7.005  8.295  9.589 10.833
  800.0   80  1.4200  0.137E-01  2.032  3.653    0.60  2.3006  0.990  3.653  0.645  0.915  1.000  2.745  4.263  5.545  6.834  8.010  9.201 10.315
  870.0   80  1.4200  0.137E-01  2.032  3.653    0.60  2.2514  0.990  3.653  0.645  0.902  1.000  2.707  4.172  5.364  6.598  7.711  8.821  9.802
 1000.0   80  1.4200  0.137E-01  2.032  3.653    0.60  2.1677  0.990  3.653  0.655  0.883  1.000  2.649  4.002  5.015  6.087  7.071  8.082  8.969
 1020.0   80  1.4200  0.137E-01  2.032  3.653    0.60  2.2528  0.990  3.653  0.667  0.882  1.000  2.647  4.017  5.052  6.173  7.175  8.215  9.159
55555.6   80  1.8123  0.377E+00  2.032  3.653    0.60  0.2919  0.990  3.653  0.063  0.038  1.000  0.115  0.502  0.018  0.000  0.000  0.000  0.000
23529.4   80  1.7926  0.394E+00  2.032  3.653    0.60  1.3870  0.990  3.653  0.343  0.235  1.000  0.704  0.572  0.104  0.009  0.000  0.000  0.000
17699.1   80  1.9542  0.666E+00  2.032  3.653    0.60  2.7710  0.990  3.653  0.428  0.410  1.000  1.231  0.722  0.233  0.045  0.004  0.000  0.000
15037.6   80  1.5722  0.269E+00  2.032  3.653    0.60  1.8488  0.990  3.653  0.431  0.548  1.000  1.645  0.994  0.366  0.087  0.011  0.001  0.000
13157.9   80  1.6818  0.227E+00  2.032  3.653    0.60  2.4901  0.990  3.653  0.557  0.610  1.000  1.831  1.244  0.531  0.167  0.028  0.003  0.000
11111.1   80  1.8154  0.557E+00  2.032  3.653    0.60  2.9699  0.990  3.653  0.464  0.677  1.000  2.030  1.940  1.261  0.605  0.160  0.028  0.003
 9708.7   80  1.8968  0.724E+00  2.032  3.653    0.60  2.9138  0.990  3.653  0.465  0.691  1.000  2.074  2.343  1.728  1.038  0.447  0.129  0.021
 8849.6   80  1.5905  0.805E+00  2.032  3.653    0.60  2.7357  0.990  3.653  0.446  0.726  1.000  2.179  2.591  2.150  1.365  0.712  0.256  0.055
 7782.1   80  1.0819  0.427E+00  2.032  3.653    0.60  1.8964  0.990  3.653  0.346  0.794  1.000  2.382  2.922  2.578  1.706  0.891  0.356  0.102
 6968.6   80  1.2648  0.119E+00  2.032  3.653    0.60  1.7726  0.990  3.653  0.508  0.838  1.000  2.515  3.152  2.964  2.130  1.138  0.466  0.141
 6097.6   80  1.4392  0.178E+00  2.032  3.653    0.60  2.8543  0.990  3.653  0.567  0.847  1.000  2.542  3.401  3.612  3.256  2.474  1.465  0.653
 5154.6   80  1.3947  0.131E+00  2.032  3.653    0.60  2.9511  0.990  3.653  0.606  0.872  1.000  2.615  3.647  4.096  4.071  3.624  2.828  1.831
 4618.9   80  1.4292  0.159E+00  2.032  3.653    0.60  2.9101  0.990  3.653  0.561  0.877  1.000  2.632  3.757  4.392  4.607  4.472  3.990  3.207
 4319.7   80  1.4226  0.148E+00  2.032  3.653    0.60  2.9022  0.990  3.653  0.563  0.882  1.000  2.647  3.806  4.506  4.830  4.818  4.498  3.890
 4016.1   80  1.4213  0.176E+00  2.032  3.653    0.60  2.7410  0.990  3.653  0.524  0.891  1.000  2.672  3.911  4.721  5.171  5.299  5.118  4.672
 3418.8   80  1.3373  0.207E+00  2.032  3.653    0.60  2.5306  0.990  3.653  0.496  0.918  1.000  2.754  4.158  5.179  5.850  6.200  6.249  6.022
 3444.7   80  1.3447  0.208E+00  2.032  3.653    0.60  2.5382  0.990  3.653  0.496  0.917  1.000  2.750  4.146  5.158  5.820  6.162  6.202  5.966
 2777.0   80  1.2968  0.202E-01  2.032  3.653    0.60  3.3209  0.990  3.653  0.836  0.878  1.000  2.635  3.865  4.647  5.150  5.473  5.649  5.710
 2320.2   80  1.3763  0.346E-02  2.032  3.653    0.60  1.7792  0.990  3.653  0.917  0.640  1.000  1.921  2.486  2.019  1.952  1.789  1.708  1.835
 2044.2   80  1.3966  0.455E-02  2.032  3.653    0.60  2.2471  0.990  3.653  0.898  0.717  1.000  2.151  3.195  3.384  4.016  4.351  4.931  5.185
 1778.4   80  1.4098  0.796E-02  2.032  3.653    0.60  2.7702  0.990  3.653  0.856  0.840  1.000  2.521  3.865  4.683  5.707  6.446  7.216  7.740
 1455.2   80  1.4183  0.120E-01  2.032  3.653    0.60  2.1441  0.990  3.653  0.721  0.838  1.000  2.514  3.689  4.349  5.091  5.411  5.785  6.013
 1270.3   80  1.4200  0.137E-01  2.032  3.653    0.60  2.1826  0.990  3.653  0.689  0.867  1.000  2.601  3.847  4.649  5.467  6.100  6.806  7.450
  944.3   80  1.4200  0.137E-01  2.032  3.653    0.60  2.1092  0.990  3.653  0.635  0.881  1.000  2.643  3.997  5.017  6.104  7.048  8.015  8.860
  693.5   80  1.4200  0.137E-01  2.032  3.653    0.60  2.1543  0.990  3.653  0.606  0.918  1.000  2.754  4.275  5.575  6.867  8.097  9.341 10.527
  527.1   80  1.4200  0.137E-01  2.032  3.653    0.60  2.2017  0.990  3.653  0.588  0.938  1.000  2.815  4.469  5.977  7.467  8.913 10.348 11.736
  399.8   80  1.4200  0.137E-01  2.032  3.653    0.60  2.1532  0.990  3.653  0.562  0.949  1.000  2.846  4.579  6.215  7.825  9.409 10.970 12.497
  329.1   80  1.4200  0.137E-01  2.032  3.653    0.60  2.1041  0.990  3.653  0.545  0.953  1.000  2.859  4.632  6.329  7.999  9.647 11.273 12.866
  229.8   80  1.4200  0.137E-01  2.032  3.653    0.60  2.0883  0.990  3.653  0.538  0.959  1.000  2.877  4.704  6.481  8.235  9.972 11.688 13.382
 7082.2   80  1.2291  0.131E+00  2.032  3.653    0.60  1.5859  0.990  3.653  0.442  0.837  1.000  2.511  3.127  2.896  2.012  1.043  0.415  0.123
  300.0   90  1.4200  0.137E-01  2.032  4.181    0.60  2.1068  0.990  4.181  0.542  0.958  1.000  2.874  4.688  6.446  8.180  9.894 11.588 13.256
  400.0   90  1.4200  0.137E-01  2.032  4.181    0.60  2.1382  0.990  4.181  0.553  0.953  1.000  2.858  4.623  6.308  7.966  9.603 11.219 12.801
  440.0   90  1.4200  0.137E-01  2.032  4.181    0.60  2.1316  0.990  4.181  0.556  0.949  1.000  2.848  4.588  6.234  7.853  9.447 11.020 12.559
  500.0   90  1.4200  0.137E-01  2.032  4.181    0.60  2.1367  0.990  4.181  0.563  0.944  1.000  2.833  4.533  6.120  7.683  9.218 10.732 12.206
  550.0   90  1.4200  0.137E-01  2.032  4.181    0.60  2.1269  0.990  4.181  0.567  0.939  1.000  2.818  4.484  6.015  7.522  8.995 10.458 11.876
  600.0   90  1.4200  0.137E-01  2.032  4.181    0.60  2.1985  0.990  4.181  0.587  0.938  1.000  2.815  4.468  5.980  7.471  8.920 10.353 11.744
  675.0   90  1.4200  0.137E-01  2.032  4.181    0.60  2.1201  0.990  4.181  0.582  0.925  1.000  2.776  4.356  5.755  7.151  8.491  9.822 11.079
  800.0   90  1.4200  0.137E-01  2.032  4.181    0.60  2.1466  0.990  4.181  0.605  0.917  1.000  2.750  4.263  5.553  6.827  8.035  9.255 10.436
  870.0   90  1.4200  0.137E-01  2.032  4.181    0.60  2.1790  0.990  4.181  0.621  0.913  1.000  2.738  4.236  5.485  6.736  7.877  9.042 10.147
 1000.0   90  1.4200  0.137E-01  2.032  4.181    0.60  2.2295  0.990  4.181  0.645  0.902  1.000  2.705  4.160  5.341  6.556  7.653  8.750  9.731
 1020.0   90  1.4200  0.137E-01  2.032  4.181    0.60  2.2010  0.990  4.181  0.639  0.894  1.000  2.683  4.115  5.248  6.446  7.500  8.557  9.476
55555.6   90  1.8123  0.377E+00  2.032  4.181    0.60  0.3560  0.990  4.181  0.089  0.050  1.000  0.151  0.504  0.024  0.000  0.000  0.000  0.000
23529.4   90  1.7926  0.394E+00  2.032  4.181    0.60  1.7698  0.990  4.181  0.390  0.324  1.000  0.971  0.633  0.145  0.017  0.001  0.000  0.000
17699.1   90  1.9542  0.666E+00  2.032  4.181    0.60  2.8820  0.990  4.181  0.452  0.488  1.000  1.464  0.888  0.391  0.109  0.014  0.001  0.000
15037.6   90  1.5722  0.269E+00  2.032  4.181    0.60  2.1449  0.990  4.181  0.467  0.623  1.000  1.870  1.299  0.570  0.178  0.031  0.003  0.000
13157.9   90  1.6818  0.227E+00  2.032  4.181    0.60  2.7614  0.990  4.181  0.576  0.653  1.000  1.958  1.673  0.938  0.371  0.079  0.011  0.001
11111.1   90  1.8154  0.557E+00  2.032  4.181    0.60  2.9450  0.990  4.181  0.471  0.710  1.000  2.131  2.380  1.766  1.009  0.397  0.107  0.017
 9708.7   90  1.8968  0.724E+00  2.032  4.181    0.60  2.8675  0.990  4.181  0.465  0.730  1.000  2.190  2.666  2.385  1.608  0.937  0.386  0.091
 8849.6   90  1.5905  0.805E+00  2.032  4.181    0.60  2.7180  0.990  4.181  0.458  0.756  1.000  2.268  2.867  2.771  2.048  1.262  0.615  0.198
 7782.1   90  1.0819  0.427E+00  2.032  4.181    0.60  1.9708  0.990  4.181  0.371  0.824  1.000  2.473  3.226  3.195  2.526  1.584  0.799  0.310
 6968.6   90  1.2648  0.119E+00  2.032  4.181    0.60  2.0016  0.990  4.181  0.531  0.863  1.000  2.589  3.461  3.542  3.032  2.081  1.102  0.443
 6097.6   90  1.4392  0.178E+00  2.032  4.181    0.60  2.9076  0.990  4.181  0.559  0.866  1.000  2.597  3.613  4.056  4.018  3.563  2.729  1.721
 5154.6   90  1.3947  0.131E+00  2.032  4.181    0.60  2.9626  0.990  4.181  0.593  0.883  1.000  2.649  3.788  4.433  4.652  4.527  4.051  3.297
 4618.9   90  1.4292  0.159E+00  2.032  4.181    0.60  2.7919  0.990  4.181  0.537  0.885  1.000  2.655  3.866  4.649  5.084  5.210  5.035  4.609
 4319.7   90  1.4226  0.148E+00  2.032  4.181    0.60  2.7584  0.990  4.181  0.534  0.889  1.000  2.668  3.908  4.742  5.258  5.494  5.455  5.172
 4016.1   90  1.4213  0.176E+00  2.032  4.181    0.60  2.6100  0.990  4.181  0.500  0.899  1.000  2.697  4.016  4.962  5.593  5.938  6.016  5.840
 3418.8   90  1.3373  0.207E+00  2.032  4.181    0.60  2.4662  0.990  4.181  0.487  0.925  1.000  2.775  4.249  5.389  6.224  6.775  7.056  7.084
 3444.7   90  1.3447  0.208E+00  2.032  4.181    0.60  2.4706  0.990  4.181  0.486  0.924  1.000  2.771  4.239  5.371  6.197  6.740  7.012  7.031
 2777.0   90  1.2968  0.202E-01  2.032  4.181    0.60  2.8467  0.990  4.181  0.793  0.860  1.000  2.579  3.724  4.395  4.847  5.155  5.379  5.566
 2320.2   90  1.3763  0.346E-02  2.032  4.181    0.60  2.0790  0.990  4.181  0.915  0.685  1.000  2.055  2.984  2.976  3.367  3.539  3.978  4.171
 2044.2   90  1.3966  0.455E-02  2.032  4.181    0.60  2.7873  0.990  4.181  0.909  0.800  1.000  2.401  3.712  4.412  5.420  6.089  6.881  7.430
 1778.4   90  1.4098  0.796E-02  2.032  4.181    0.60  2.4975  0.990  4.181  0.819  0.842  1.000  2.526  3.815  4.532  5.499  6.004  6.612  6.889
 1455.2   90  1.4183  0.120E-01  2.032  4.181    0.60  2.1603  0.990  4.181  0.711  0.860  1.000  2.579  3.797  4.525  5.279  5.834  6.486  7.069
 1270.3   90  1.4200  0.137E-01  2.032  4.181    0.60  2.4341  0.990  4.181  0.704  0.893  1.000  2.678  4.073  5.151  6.285  7.339  8.426  9.464
  944.3   90  1.4200  0.137E-01  2.032  4.181    0.60  2.3179  0.990  4.181  0.653  0.913  1.000  2.739  4.253  5.520  6.809  7.971  9.155 10.244
  693.5   90  1.4200  0.137E-01  2.032  4.181    0.60  2.1482  0.990  4.181  0.591  0.926  1.000  2.777  4.355  5.748  7.139  8.477  9.810 11.075
  527.1   90  1.4200  0.137E-01  2.032  4.181    0.60  2.1755  0.990  4.181  0.574  0.944  1.000  2.831  4.523  6.095  7.645  9.166 10.672 12.136
  399.8   90  1.4200  0.137E-01  2.032  4.181    0.60  2.1380  0.990  4.181  0.553  0.953  1.000  2.858  4.623  6.308  7.966  9.604 11.219 12.802
  329.1   90  1.4200  0.137E-01  2.032  4.181    0.60  2.1148  0.990  4.181  0.544  0.957  1.000  2.870  4.671  6.409  8.123  9.816 11.489 13.133
  229.8   90  1.4200  0.137E-01  2.032  4.181    0.60  2.0814  0.990  4.181  0.537  0.960  1.000  2.880  4.717  6.510  8.281 10.036 11.773 13.491
 7082.2   90  1.2291  0.131E+00  2.032  4.181    0.60  1.7825  0.990  4.181  0.469  0.864  1.000  2.592  3.445  3.492  2.922  1.928  0.985  0.385
  300.0   95  1.4200  0.137E-01  2.032  4.472    0.60  2.0965  0.990  4.472  0.539  0.959  1.000  2.876  4.697  6.465  8.210  9.937 11.643 13.325
  400.0   95  1.4200  0.137E-01  2.032  4.472    0.60  2.1077  0.990  4.472  0.545  0.953  1.000  2.860  4.635  6.335  8.009  9.661 11.290 12.888
  440.0   95  1.4200  0.137E-01  2.032  4.472    0.60  2.1279  0.990  4.472  0.552  0.951  1.000  2.854  4.611  6.282  7.927  9.550 11.152 12.721
  500.0   95  1.4200  0.137E-01  2.032  4.472    0.60  2.1379  0.990  4.472  0.559  0.947  1.000  2.842  4.565  6.186  7.782  9.351 10.897 12.406
  550.0   95  1.4200  0.137E-01  2.032  4.472    0.60  2.1706  0.990  4.472  0.572  0.945  1.000  2.834  4.534  6.117  7.678  9.212 10.730 12.205
  600.0   95  1.4200  0.137E-01  2.032  4.472    0.60  2.1155  0.990  4.472  0.566  0.938  1.000  2.814  4.469  5.985  7.475  8.930 10.374 11.774
  675.0   95  1.4200  0.137E-01  2.032  4.472    0.60  2.1843  0.990  4.472  0.589  0.935  1.000  2.804  4.435  5.912  7.371  8.784 10.179 11.524
  800.0   95  1.4200  0.137E-01  2.032  4.472    0.60  2.2569  0.990  4.472  0.617  0.928  1.000  2.783  4.362  5.751  7.129  8.463  9.797 11.086
  870.0   95  1.4200  0.137E-01  2.032  4.472    0.60  2.1179  0.990  4.472  0.601  0.914  1.000  2.741  4.241  5.501  6.758  7.937  9.139 10.270
 1000.0   95  1.4200  0.137E-01  2.032  4.472    0.60  2.3346  0.990  4.472  0.650  0.914  1.000  2.742  4.264  5.542  6.843  8.028  9.219 10.309
 1020.0   95  1.4200  0.137E-01  2.032  4.472    0.60  2.3219  0.990  4.472  0.653  0.913  1.000  2.738  4.247  5.509  6.793  7.959  9.122 10.203
55555.6   95  1.8123  0.377E+00  2.032  4.472    0.60  0.3956  0.990  4.472  0.105  0.057  1.000  0.172  0.505  0.027  0.001  0.000  0.000  0.000
23529.4   95  1.7926  0.394E+00  2.032  4.472    0.60  1.9752  0.990  4.472  0.410  0.377  1.000  1.130  0.680  0.173  0.024  0.002  0.000  0.000
17699.1   95  1.9542  0.666E+00  2.032  4.472    0.60  2.9179  0.990  4.472  0.457  0.529  1.000  1.588  1.026  0.520  0.170  0.025  0.002  0.000
15037.6   95  1.5722  0.269E+00  2.032  4.472    0.60  2.2732  0.990  4.472  0.484  0.647  1.000  1.941  1.495  0.726  0.256  0.051  0.006  0.001
13157.9   95  1.6818  0.227E+00  2.032  4.472    0.60  2.9313  0.990  4.472  0.576  0.687  1.000  2.061  1.956  1.244  0.536  0.130  0.022  0.003
11111.1   95  1.8154  0.557E+00  2.032  4.472    0.60  2.9190  0.990  4.472  0.469  0.728  1.000  2.183  2.568  2.081  1.292  0.616  0.201  0.038
 9708.7   95  1.8968  0.724E+00  2.032  4.472    0.60  2.8342  0.990  4.472  0.469  0.743  1.000  2.230  2.789  2.687  1.948  1.220  0.585  0.171
 8849.6   95  1.5905  0.805E+00  2.032  4.472    0.60  2.6994  0.990  4.472  0.464  0.767  1.000  2.301  2.994  3.019  2.441  1.601  0.882  0.348
 7782.1   95  1.0819  0.427E+00  2.032  4.472    0.60  2.0037  0.990  4.472  0.383  0.837  1.000  2.511  3.360  3.466  2.954  2.037  1.141  0.508
 6968.6   95  1.2648  0.119E+00  2.032  4.472    0.60  2.1118  0.990  4.472  0.542  0.874  1.000  2.622  3.578  3.810  3.441  2.625  1.586  0.740
 6097.6   95  1.4392  0.178E+00  2.032  4.472    0.60  2.8872  0.990  4.472  0.553  0.870  1.000  2.611  3.682  4.225  4.320  4.026  3.357  2.411
 5154.6   95  1.3947  0.131E+00  2.032  4.472    0.60  2.9311  0.990  4.472  0.583  0.887  1.000  2.662  3.840  4.557  4.897  4.899  4.596  4.012
 4618.9   95  1.4292  0.159E+00  2.032  4.472    0.60  2.7210  0.990  4.472  0.522  0.890  1.000  2.671  3.921  4.769  5.298  5.538  5.504  5.215
 4319.7   95  1.4226  0.148E+00  2.032  4.472    0.60  2.6663  0.990  4.472  0.517  0.891  1.000  2.674  3.946  4.843  5.443  5.774  5.863  5.708
 4016.1   95  1.4213  0.176E+00  2.032  4.472    0.60  2.5468  0.990  4.472  0.490  0.903  1.000  2.710  4.070  5.078  5.794  6.236  6.419  6.362
 3418.8   95  1.3373  0.207E+00  2.032  4.472    0.60  2.4330  0.990  4.472  0.483  0.928  1.000  2.785  4.291  5.485  6.394  7.034  7.419  7.560
 3444.7   95  1.3447  0.208E+00  2.032  4.472    0.60  2.4364  0.990  4.472  0.483  0.927  1.000  2.781  4.281  5.468  6.369  7.001  7.378  7.509
 2777.0   95  1.2968  0.202E-01  2.032  4.472    0.60  2.6122  0.990  4.472  0.760  0.843  1.000  2.528  3.625  4.203  4.578  4.847  5.068  5.272
 2320.2   95  1.3763  0.346E-02  2.032  4.472    0.60  2.3567  0.990  4.472  0.920  0.736  1.000  2.209  3.328  3.675  4.361  4.807  5.412  5.860
 2044.2   95  1.3966  0.455E-02  2.032  4.472    0.60  2.8338  0.990  4.472  0.906  0.824  1.000  2.471  3.815  4.563  5.588  6.242  7.043  7.544
 1778.4   95  1.4098  0.796E-02  2.032  4.472    0.60  2.1740  0.990  4.472  0.796  0.829  1.000  2.486  3.660  4.238  4.945  5.197  5.516  5.691
 1455.2   95  1.4183  0.120E-01  2.032  4.472    0.60  2.3871  0.990  4.472  0.726  0.876  1.000  2.628  3.948  4.878  5.865  6.699  7.645  8.571
 1270.3   95  1.4200  0.137E-01  2.032  4.472    0.60  2.2848  0.990  4.472  0.677  0.888  1.000  2.664  4.046  5.091  6.201  7.219  8.294  9.243
  944.3   95  1.4200  0.137E-01  2.032  4.472    0.60  2.2268  0.990  4.472  0.628  0.914  1.000  2.742  4.248  5.515  6.782  7.950  9.126 10.225
  693.5   95  1.4200  0.137E-01  2.032  4.472    0.60  2.1449  0.990  4.472  0.583  0.930  1.000  2.790  4.396  5.837  7.267  8.647 10.007 11.311
  527.1   95  1.4200  0.137E-01  2.032  4.472    0.60  2.1192  0.990  4.472  0.559  0.944  1.000  2.832  4.533  6.121  7.686  9.220 10.735 12.207
  399.8   95  1.4200  0.137E-01  2.032  4.472    0.60  2.1080  0.990  4.472  0.545  0.953  1.000  2.860  4.635  6.336  8.010  9.662 11.291 12.890
  329.1   95  1.4200  0.137E-01  2.032  4.472    0.60  2.0980  0.990  4.472  0.540  0.957  1.000  2.871  4.681  6.432  8.157  9.864 11.549 13.208
  229.8   95  1.4200  0.137E-01  2.032  4.472    0.60  2.0786  0.990  4.472  0.537  0.960  1.000  2.881  4.722  6.521  8.299 10.061 11.807 13.534
 7082.2   95  1.2291  0.131E+00  2.032  4.472    0.60  1.8798  0.990  4.472  0.481  0.875  1.000  2.625  3.575  3.766  3.350  2.468  1.432  0.645
  300.0   99  1.4200  0.137E-01  2.032  4.472    0.60  2.0965  0.990  4.472  0.539  0.959  1.000  2.876  4.697  6.465  8.210  9.937 11.643 13.325
  400.0   99  1.4200  0.137E-01  2.032  4.472    0.60  2.1077  0.990  4.472  0.545  0.953  1.000  2.860  4.635  6.335  8.009  9.661 11.290 12.888
  440.0   99  1.4200  0.137E-01  2.032  4.472    0.60  2.1279  0.990  4.472  0.552  0.951  1.000  2.854  4.611  6.282  7.927  9.550 11.152 12.721
  500.0   99  1.4200  0.137E-01  2.032  4.472    0.60  2.1379  0.990  4.472  0.559  0.947  1.000  2.842  4.565  6.186  7.782  9.351 10.897 12.406
  550.0   99  1.4200  0.137E-01  2.032  4.472    0.60  2.1706  0.990  4.472  0.572  0.945  1.000  2.834  4.534  6.117  7.678  9.212 10.730 12.205
  600.0   99  1.4200  0.137E-01  2.032  4.472    0.60  2.1155  0.990  4.472  0.566  0.938  1.000  2.814  4.469  5.985  7.475  8.930 10.374 11.774
  675.0   99  1.4200  0.137E-01  2.032  4.472    0.60  2.1843  0.990  4.472  0.589  0.935  1.000  2.804  4.435  5.912  7.371  8.784 10.179 11.524
  800.0   99  1.4200  0.137E-01  2.032  4.472    0.60  2.2569  0.990  4.472  0.617  0.928  1.000  2.783  4.362  5.751  7.129  8.463  9.797 11.086
  870.0   99  1.4200  0.137E-01  2.032  4.472    0.60  2.1179  0.990  4.472  0.601  0.914  1.000  2.741  4.241  5.501  6.758  7.937  9.139 10.270
 1000.0   99  1.4200  0.137E-01  2.032  4.472    0.60  2.3346  0.990  4.472  0.650  0.914  1.000  2.742  4.264  5.542  6.843  8.028  9.219 10.309
 1020.0   99  1.4200  0.137E-01  2.032  4.472    0.60  2.3219  0.990  4.472  0.653  0.913  1.000  2.738  4.247  5.509  6.793  7.959  9.122 10.203
55555.6   99  1.8123  0.377E+00  2.032  4.472    0.60  0.3956  0.990  4.472  0.105  0.057  1.000  0.172  0.505  0.027  0.001  0.000  0.000  0.000
23529.4   99  1.7926  0.394E+00  2.032  4.472    0.60  1.9752  0.990  4.472  0.410  0.377  1.000  1.130  0.680  0.173  0.024  0.002  0.000  0.000
17699.1   99  1.9542  0.666E+00  2.032  4.472    0.60  2.9179  0.990  4.472  0.457  0.529  1.000  1.588  1.026  0.520  0.170  0.025  0.002  0.000
15037.6   99  1.5722  0.269E+00  2.032  4.472    0.60  2.2732  0.990  4.472  0.484  0.647  1.000  1.941  1.495  0.726  0.256  0.051  0.006  0.001
13157.9   99  1.6818  0.227E+00  2.032  4.472    0.60  2.9313  0.990  4.472  0.576  0.687  1.000  2.061  1.956  1.244  0.536  0.130  0.022  0.003
11111.1   99  1.8154  0.557E+00  2.032  4.472    0.60  2.9190  0.990  4.472  0.469  0.728  1.000  2.183  2.568  2.081  1.292  0.616  0.201  0.038
 9708.7   99  1.8968  0.724E+00  2.032  4.472    0.60  2.8342  0.990  4.472  0.469  0.743  1.000  2.230  2.789  2.687  1.948  1.220  0.585  0.171
 8849.6   99  1.5905  0.805E+00  2.032  4.472    0.60  2.6994  0.990  4.472  0.464  0.767  1.000  2.301  2.994  3.019  2.441  1.601  0.882  0.348
 7782.1   99  1.0819  0.427E+00  2.032  4.472    0.60  2.0037  0.990  4.472  0.383  0.837  1.000  2.511  3.360  3.466  2.954  2.037  1.141  0.508
 6968.6   99  1.2648  0.119E+00  2.032  4.472    0.60  2.1118  0.990  4.472  0.542  0.874  1.000  2.622  3.578  3.810  3.441  2.625  1.586  0.740
 6097.6   99  1.4392  0.178E+00  2.032  4.472    0.60  2.8872  0.990  4.472  0.553  0.870  1.000  2.611  3.682  4.225  4.320  4.026  3.357  2.411
 5154.6   99  1.3947  0.131E+00  2.032  4.472    0.60  2.9311  0.990  4.472  0.583  0.887  1.000  2.662  3.840  4.557  4.897  4.899  4.596  4.012
 4618.9   99  1.4292  0.159E+00  2.032  4.472    0.60  2.7210  0.990  4.472  0.522  0.890  1.000  2.671  3.921  4.769  5.298  5.538  5.504  5.215
 4319.7   99  1.4226  0.148E+00  2.032  4.472    0.60  2.6663  0.990  4.472  0.517  0.891  1.000  2.674  3.946  4.843  5.443  5.774  5.863  5.708
 4016.1   99  1.4213  0.176E+00  2.032  4.472    0.60  2.5468  0.990  4.472  0.490  0.903  1.000  2.710  4.070  5.078  5.794  6.236  6.419  6.362
 3418.8   99  1.3373  0.207E+00  2.032  4.472    0.60  2.4330  0.990  4.472  0.483  0.928  1.000  2.785  4.291  5.485  6.394  7.034  7.419  7.560
 3444.7   99  1.3447  0.208E+00  2.032  4.472    0.60  2.4364  0.990  4.472  0.483  0.927  1.000  2.781  4.281  5.468  6.369  7.001  7.378  7.509
 2777.0   99  1.2968  0.202E-01  2.032  4.472    0.60  2.6122  0.990  4.472  0.760  0.843  1.000  2.528  3.625  4.203  4.578  4.847  5.068  5.272
 2320.2   99  1.3763  0.346E-02  2.032  4.472    0.60  2.3567  0.990  4.472  0.920  0.736  1.000  2.209  3.328  3.675  4.361  4.807  5.412  5.860
 2044.2   99  1.3966  0.455E-02  2.032  4.472    0.60  2.8338  0.990  4.472  0.906  0.824  1.000  2.471  3.815  4.563  5.588  6.242  7.043  7.544
 1778.4   99  1.4098  0.796E-02  2.032  4.472    0.60  2.1740  0.990  4.472  0.796  0.829  1.000  2.486  3.660  4.238  4.945  5.197  5.516  5.691
 1455.2   99  1.4183  0.120E-01  2.032  4.472    0.60  2.3871  0.990  4.472  0.726  0.876  1.000  2.628  3.948  4.878  5.865  6.699  7.645  8.571
 1270.3   99  1.4200  0.137E-01  2.032  4.472    0.60  2.2848  0.990  4.472  0.677  0.888  1.000  2.664  4.046  5.091  6.201  7.219  8.294  9.243
  944.3   99  1.4200  0.137E-01  2.032  4.472    0.60  2.2268  0.990  4.472  0.628  0.914  1.000  2.742  4.248  5.515  6.782  7.950  9.126 10.225
  693.5   99  1.4200  0.137E-01  2.032  4.472    0.60  2.1449  0.990  4.472  0.583  0.930  1.000  2.790  4.396  5.837  7.267  8.647 10.007 11.311
  527.1   99  1.4200  0.137E-01  2.032  4.472    0.60  2.1192  0.990  4.472  0.559  0.944  1.000  2.832  4.533  6.121  7.686  9.220 10.735 12.207
  399.8   99  1.4200  0.137E-01  2.032  4.472    0.60  2.1080  0.990  4.472  0.545  0.953  1.000  2.860  4.635  6.336  8.010  9.662 11.291 12.890
  329.1   99  1.4200  0.137E-01  2.032  4.472    0.60  2.0980  0.990  4.472  0.540  0.957  1.000  2.871  4.681  6.432  8.157  9.864 11.549 13.208
  229.8   99  1.4200  0.137E-01  2.032  4.472    0.60  2.0786  0.990  4.472  0.537  0.960  1.000  2.881  4.722  6.521  8.299 10.061 11.807 13.534
 7082.2   99  1.2291  0.131E+00  2.032  4.472    0.60  1.8798  0.990  4.472  0.481  0.875  1.000  2.625  3.575  3.766  3.350  2.468  1.432  0.645
